           Num   Time(s)  PosAbs(mm)  Pos(mm)  Pos(%)  Load(kN)
0          1.0     0.005    -50.2616  -0.0047     0.0    0.0712
10        11.0     2.005    -50.1285   0.1284     0.0    0.1376
20        21.0     4.005    -49.9945   0.2624     0.0    0.1873
30        31.0     6.005    -49.8595   0.3974     0.0    0.2519
40        41.0     8.005    -49.7252   0.5317     0.0    0.3264
50        51.0    10.005    -49.5941   0.6628     0.0    0.4069
60        61.0    12.005    -49.4614   0.7955     0.0    0.5029
70        71.0    14.005    -49.3302   0.9266     0.0    0.6056
80        81.0    16.005    -49.1938   1.0631     0.0    0.7225
90        91.0    18.005    -49.0624   1.1945     0.0    0.8417
100      101.0    20.005    -48.9264   1.3305     0.0    0.9678
110      111.0    22.005    -48.7963   1.4606     0.0    1.1057
120      121.0    24.005    -48.6607   1.5962     0.0    1.2522
130      131.0    26.005    -48.5261   1.7307     0.0    1.4086
140      141.0    28.005    -48.3935   1.8634     0.0    1.5638
150      151.0    30.005    -48.2638   1.9931     0.0    1.7294
160      161.0    32.005    -48.1276   2.1292     0.0    1.9076
170      171.0    34.005    -47.9953   2.2616     0.0    2.0858
180      181.0    36.005    -47.8619   2.3949     0.0    2.2742
190      191.0    38.005    -47.7248   2.5321     0.0    2.4648
200      201.0    40.005    -47.5930   2.6639     0.0    2.6493
210      211.0    42.005    -47.4618   2.7951     0.0    2.8289
220      221.0    44.005    -47.3277   2.9292     0.0    2.9438
230      231.0    46.005    -47.1958   3.0610     0.0    2.9737
240      241.0    48.005    -47.0621   3.1948     0.0    3.0207
250      251.0    50.005    -46.9273   3.3296     0.0    3.0516
260      261.0    52.005    -46.7939   3.4630     0.0    3.0569
270      271.0    54.005    -46.6624   3.5945     0.0    3.0561
280      281.0    56.005    -46.5287   3.7282     0.0    3.1196
290      291.0    58.005    -46.3952   3.8617     0.0    3.1734
300      301.0    60.005    -46.2616   3.9953     0.0    3.3122
310      311.0    62.005    -46.1275   4.1294     0.0    3.3990
320      321.0    64.005    -45.9946   4.2623     0.0    3.4643
330      331.0    66.005    -45.8613   4.3955     0.0    3.4488
340      341.0    68.005    -45.7288   4.5281     0.0    3.4788
350      351.0    70.005    -45.5956   4.6613     0.0    3.4799
360      361.0    72.005    -45.4618   4.7951     0.0    3.5088
370      371.0    74.005    -45.3292   4.9276     0.0    3.5255
380      381.0    76.005    -45.1961   5.0607     0.0    3.5375
390      391.0    78.005    -45.0605   5.1964     0.0    3.5463
400      401.0    80.005    -44.9270   5.3298     0.0    3.5596
410      411.0    82.005    -44.7924   5.4645     0.0    3.5484
420      421.0    84.005    -44.6618   5.5951     0.0    3.5693
430      431.0    86.005    -44.5294   5.7275     0.0    3.6151
440      441.0    88.005    -44.3957   5.8611     0.0    3.6608
450      451.0    90.005    -44.2602   5.9967     0.0    3.9793
466      461.0    90.465    -44.2832   5.9737     0.0    3.8035
476      471.0    90.865    -44.2811   5.9757     0.0    3.7947
486      481.0    91.265    -44.2797   5.9771     0.0    3.7681
496      491.0    91.665    -44.2804   5.9765     0.0    3.7466
506      501.0    92.065    -44.2811   5.9757     0.0    3.7312
516      511.0    92.465    -44.2803   5.9766     0.0    3.7275
526      521.0    92.865    -44.2819   5.9750     0.0    3.7419
536      531.0    93.265    -44.2803   5.9766     0.0    3.7039
546      541.0    93.665    -44.2812   5.9757     0.0    3.7056
556      551.0    94.065    -44.2804   5.9765     0.0    3.6806
566      561.0    94.465    -44.2834   5.9734     0.0    3.6738
576      571.0    94.865    -44.2818   5.9751     0.0    3.6700
586      581.0    95.265    -44.2792   5.9776     0.0    3.6782
596      591.0    95.665    -44.2821   5.9748     0.0    3.6540
606      601.0    96.065    -44.2796   5.9773     0.0    3.6462
616      611.0    96.465    -44.2817   5.9752     0.0    3.6454
626      621.0    96.865    -44.2812   5.9757     0.0    3.6197
636      631.0    97.265    -44.2801   5.9767     0.0    3.6132
646      641.0    97.665    -44.2824   5.9744     0.0    3.6133
656      651.0    98.065    -44.2795   5.9774     0.0    3.6124
666      661.0    98.465    -44.2808   5.9761     0.0    3.6054
676      671.0    98.865    -44.2815   5.9753     0.0    3.6135
687      681.0    99.265    -44.2809   5.9759     0.0    3.5844
697      691.0    99.665    -44.2815   5.9753     0.0    3.6689
707      701.0   100.065    -44.2805   5.9763     0.0    3.6536
717      711.0   100.465    -44.2798   5.9771     0.0    3.6645
727      721.0   100.865    -44.2819   5.9750     0.0    3.6488
737      731.0   101.265    -44.2826   5.9743     0.0    3.6402
747      741.0   101.665    -44.2812   5.9757     0.0    3.6400
757      751.0   102.065    -44.2822   5.9747     0.0    3.6260
767      761.0   102.465    -44.2813   5.9755     0.0    3.6322
777      771.0   102.865    -44.2825   5.9744     0.0    3.6165
787      781.0   103.265    -44.2815   5.9754     0.0    3.6390
797      791.0   103.665    -44.2829   5.9740     0.0    3.5021
807      801.0   104.065    -44.2812   5.9757     0.0    3.4714
817      811.0   104.465    -44.2802   5.9766     0.0    3.4696
827      821.0   104.865    -44.2808   5.9761     0.0    3.4394
837      831.0   105.265    -44.2805   5.9763     0.0    3.4527
847      841.0   105.665    -44.2831   5.9738     0.0    3.4448
857      851.0   106.065    -44.2837   5.9732     0.0    3.4394
867      861.0   106.465    -44.2816   5.9753     0.0    3.4665
877      871.0   106.865    -44.2819   5.9750     0.0    3.4473
887      881.0   107.265    -44.2817   5.9751     0.0    3.4590
897      891.0   107.665    -44.2807   5.9761     0.0    3.4484
907      901.0   108.065    -44.2825   5.9744     0.0    3.4478
917      911.0   108.465    -44.2822   5.9746     0.0    3.4553
927      921.0   108.865    -44.2824   5.9745     0.0    3.4365
937      931.0   109.265    -44.2811   5.9758     0.0    3.4305
947      941.0   109.665    -44.2805   5.9764     0.0    3.4387
957      951.0   110.065    -44.2800   5.9768     0.0    3.4348
967      961.0   110.465    -44.2804   5.9765     0.0    3.4636
977      971.0   110.865    -44.2820   5.9748     0.0    3.4357
987      981.0   111.265    -44.2820   5.9748     0.0    3.4583
997      991.0   111.665    -44.2803   5.9765     0.0    3.4552
1007    1001.0   112.065    -44.2790   5.9779     0.0    3.4589
1017    1011.0   112.465    -44.2829   5.9739     0.0    3.4356
1027    1021.0   112.865    -44.2796   5.9772     0.0    3.4431
1037    1031.0   113.265    -44.2810   5.9759     0.0    3.4304
1047    1041.0   113.665    -44.2818   5.9751     0.0    3.4413
1057    1051.0   114.065    -44.2788   5.9781     0.0    3.4584
1067    1061.0   114.465    -44.2822   5.9747     0.0    3.5255
1077    1071.0   114.865    -44.2821   5.9748     0.0    3.5089
1087    1081.0   115.265    -44.2804   5.9765     0.0    3.4862
1097    1091.0   115.665    -44.2819   5.9750     0.0    3.4802
1107    1101.0   116.065    -44.2806   5.9763     0.0    3.4656
1117    1111.0   116.465    -44.2834   5.9734     0.0    3.4735
1127    1121.0   116.865    -44.2798   5.9771     0.0    3.4469
1137    1131.0   117.265    -44.2823   5.9746     0.0    3.3950
1147    1141.0   117.665    -44.2846   5.9722     0.0    3.3948
1157    1151.0   118.065    -44.2823   5.9745     0.0    3.3878
1167    1161.0   118.465    -44.2793   5.9775     0.0    3.4188
1177    1171.0   118.865    -44.2807   5.9762     0.0    3.4142
1187    1181.0   119.265    -44.2804   5.9764     0.0    3.3962
1197    1191.0   119.665    -44.2787   5.9782     0.0    3.3704
1207    1201.0   120.065    -44.2812   5.9757     0.0    3.3721
1217    1211.0   120.465    -44.2821   5.9748     0.0    3.3903
1227    1221.0   120.865    -44.2798   5.9771     0.0    3.3849
1237    1231.0   121.265    -44.2828   5.9741     0.0    3.3657
1247    1241.0   121.665    -44.2822   5.9747     0.0    3.3707
1257    1251.0   122.065    -44.2825   5.9744     0.0    3.3558
1267    1261.0   122.465    -44.2796   5.9773     0.0    3.3635
1277    1271.0   122.865    -44.2835   5.9734     0.0    3.3612
1287    1281.0   123.265    -44.2829   5.9740     0.0    3.3652
1297    1291.0   123.665    -44.2803   5.9766     0.0    3.3605
1307    1301.0   124.065    -44.2805   5.9764     0.0    3.3451
1317    1311.0   124.465    -44.2832   5.9737     0.0    3.3458
1327    1321.0   124.865    -44.2800   5.9769     0.0    3.3523
1337    1331.0   125.265    -44.2810   5.9759     0.0    3.3573
1347    1341.0   125.665    -44.2817   5.9752     0.0    3.3534
1357    1351.0   126.065    -44.2813   5.9755     0.0    3.3657
1367    1361.0   126.465    -44.2797   5.9772     0.0    3.3940
1377    1371.0   126.865    -44.2805   5.9764     0.0    3.3666
1387    1381.0   127.265    -44.2813   5.9755     0.0    3.3571
1397    1391.0   127.665    -44.2823   5.9746     0.0    3.3465
1407    1401.0   128.065    -44.2801   5.9767     0.0    3.3601
1417    1411.0   128.465    -44.2829   5.9739     0.0    3.3352
1427    1421.0   128.865    -44.2811   5.9757     0.0    3.3695
1437    1431.0   129.265    -44.2793   5.9776     0.0    3.3318
1447    1441.0   129.665    -44.2828   5.9741     0.0    3.3368
1457    1451.0   130.065    -44.2829   5.9740     0.0    3.3380
1467    1461.0   130.465    -44.2796   5.9773     0.0    3.3564
1477    1471.0   130.865    -44.2815   5.9754     0.0    3.3230
1487    1481.0   131.265    -44.2813   5.9756     0.0    3.3522
1497    1491.0   131.665    -44.2807   5.9762     0.0    3.3570
1507    1501.0   132.065    -44.2815   5.9754     0.0    3.3342
1517    1511.0   132.465    -44.2810   5.9758     0.0    3.3490
1527    1521.0   132.865    -44.2827   5.9741     0.0    3.3530
1537    1531.0   133.265    -44.2812   5.9757     0.0    3.3398
1547    1541.0   133.665    -44.2796   5.9772     0.0    3.3415
1557    1551.0   134.065    -44.2817   5.9752     0.0    3.3356
1567    1561.0   134.465    -44.2823   5.9746     0.0    3.3478
1577    1571.0   134.865    -44.2822   5.9747     0.0    3.3416
1587    1581.0   135.265    -44.2809   5.9759     0.0    3.3452
1597    1591.0   135.665    -44.2801   5.9767     0.0    3.3310
1607    1601.0   136.065    -44.2799   5.9770     0.0    3.3300
1617    1611.0   136.465    -44.2819   5.9749     0.0    3.3194
1627    1621.0   136.865    -44.2820   5.9749     0.0    3.3174
1637    1631.0   137.265    -44.2844   5.9724     0.0    3.3482
1647    1641.0   137.665    -44.2786   5.9783     0.0    3.3305
1657    1651.0   138.065    -44.2797   5.9772     0.0    3.3238
1667    1661.0   138.465    -44.2810   5.9759     0.0    3.3348
1677    1671.0   138.865    -44.2814   5.9754     0.0    3.3327
1687    1681.0   139.265    -44.2798   5.9771     0.0    3.3352
1697    1691.0   139.665    -44.2823   5.9746     0.0    3.3122
1707    1701.0   140.065    -44.2825   5.9744     0.0    3.3184
1717    1711.0   140.465    -44.2819   5.9750     0.0    3.3190
1727    1721.0   140.865    -44.2828   5.9741     0.0    3.3227
1737    1731.0   141.265    -44.2803   5.9766     0.0    3.3183
1747    1741.0   141.665    -44.2819   5.9749     0.0    3.3226
1757    1751.0   142.065    -44.2832   5.9736     0.0    3.2992
1767    1761.0   142.465    -44.2829   5.9740     0.0    3.3011
1777    1771.0   142.865    -44.2803   5.9765     0.0    3.2949
1787    1781.0   143.265    -44.2831   5.9738     0.0    3.3097
1797    1791.0   143.665    -44.2808   5.9760     0.0    3.3038
1807    1801.0   144.065    -44.2802   5.9767     0.0    3.2980
1817    1811.0   144.465    -44.2808   5.9761     0.0    3.3130
1827    1821.0   144.865    -44.2806   5.9762     0.0    3.3056
1837    1831.0   145.265    -44.2788   5.9781     0.0    3.3024
1847    1841.0   145.665    -44.2797   5.9772     0.0    3.3082
1857    1851.0   146.065    -44.2824   5.9744     0.0    3.3212
1867    1861.0   146.465    -44.2807   5.9761     0.0    3.3253
1877    1871.0   146.865    -44.2828   5.9740     0.0    3.3217
1887    1881.0   147.265    -44.2840   5.9729     0.0    3.3290
1897    1891.0   147.665    -44.2820   5.9749     0.0    3.3214
1907    1901.0   148.065    -44.2812   5.9757     0.0    3.3310
1917    1911.0   148.465    -44.2801   5.9767     0.0    3.3296
1927    1921.0   148.865    -44.2816   5.9753     0.0    3.3037
1937    1931.0   149.265    -44.2800   5.9769     0.0    3.3000
1947    1941.0   149.665    -44.2794   5.9774     0.0    3.3046
1957    1951.0   150.065    -44.2816   5.9753     0.0    3.3080
1967    1961.0   150.465    -44.2801   5.9768     0.0    3.3074
1977    1971.0   150.865    -44.2803   5.9766     0.0    3.3089
1987    1981.0   151.265    -44.2826   5.9743     0.0    3.2990
1997    1991.0   151.665    -44.2788   5.9780     0.0    3.3172
2007    2001.0   152.065    -44.2807   5.9762     0.0    3.3016
2017    2011.0   152.465    -44.2821   5.9748     0.0    3.3023
2027    2021.0   152.865    -44.2806   5.9762     0.0    3.2849
2037    2031.0   153.265    -44.2788   5.9780     0.0    3.2655
2047    2041.0   153.665    -44.2833   5.9736     0.0    3.2631
2057    2051.0   154.065    -44.2812   5.9756     0.0    3.2912
2067    2061.0   154.465    -44.2804   5.9764     0.0    3.2862
2077    2071.0   154.865    -44.2811   5.9758     0.0    3.2979
2087    2081.0   155.265    -44.2790   5.9778     0.0    3.2967
2097    2091.0   155.665    -44.2824   5.9744     0.0    3.2876
2107    2101.0   156.065    -44.2820   5.9748     0.0    3.2818
2117    2111.0   156.465    -44.2820   5.9749     0.0    3.2905
2127    2121.0   156.865    -44.2815   5.9754     0.0    3.2743
2137    2131.0   157.265    -44.2799   5.9769     0.0    3.2933
2147    2141.0   157.665    -44.2803   5.9765     0.0    3.2856
2157    2151.0   158.065    -44.2831   5.9738     0.0    3.2900
2167    2161.0   158.465    -44.2811   5.9758     0.0    3.2905
2177    2171.0   158.865    -44.2813   5.9756     0.0    3.2733
2187    2181.0   159.265    -44.2806   5.9763     0.0    3.2775
2197    2191.0   159.665    -44.2821   5.9747     0.0    3.2625
2207    2201.0   160.065    -44.2799   5.9770     0.0    3.2622
2217    2211.0   160.465    -44.2816   5.9752     0.0    3.2631
2227    2221.0   160.865    -44.2797   5.9772     0.0    3.2581
2237    2231.0   161.265    -44.2822   5.9747     0.0    3.2427
2247    2241.0   161.665    -44.2812   5.9757     0.0    3.2401
2257    2251.0   162.065    -44.2817   5.9752     0.0    3.2231
2267    2261.0   162.465    -44.2803   5.9766     0.0    3.2410
2277    2271.0   162.865    -44.2811   5.9758     0.0    3.2397
2287    2281.0   163.265    -44.2796   5.9773     0.0    3.2333
2297    2291.0   163.665    -44.2803   5.9765     0.0    3.2282
2307    2301.0   164.065    -44.2814   5.9754     0.0    3.2285
2317    2311.0   164.465    -44.2843   5.9726     0.0    3.2323
2327    2321.0   164.865    -44.2837   5.9731     0.0    3.2601
2337    2331.0   165.265    -44.2824   5.9744     0.0    3.2419
2347    2341.0   165.665    -44.2825   5.9744     0.0    3.2462
2357    2351.0   166.065    -44.2784   5.9784     0.0    3.2557
2367    2361.0   166.465    -44.2816   5.9752     0.0    3.2476
2377    2371.0   166.865    -44.2798   5.9771     0.0    3.2520
2387    2381.0   167.265    -44.2806   5.9763     0.0    3.2328
2397    2391.0   167.665    -44.2818   5.9751     0.0    3.2318
2407    2401.0   168.065    -44.2816   5.9753     0.0    3.2357
2417    2411.0   168.465    -44.2819   5.9750     0.0    3.2252
2427    2421.0   168.865    -44.2803   5.9765     0.0    3.2464
2437    2431.0   169.265    -44.2814   5.9755     0.0    3.2535
2447    2441.0   169.665    -44.2813   5.9756     0.0    3.2052
2457    2451.0   170.065    -44.2811   5.9757     0.0    3.2333
2467    2461.0   170.465    -44.2806   5.9763     0.0    3.2403
2477    2471.0   170.865    -44.2802   5.9767     0.0    3.2407
2487    2481.0   171.265    -44.2826   5.9743     0.0    3.2289
2497    2491.0   171.665    -44.2796   5.9772     0.0    3.2702
2507    2501.0   172.065    -44.2828   5.9741     0.0    3.2291
2517    2511.0   172.465    -44.2819   5.9749     0.0    3.2480
2527    2521.0   172.865    -44.2848   5.9720     0.0    3.2468
2537    2531.0   173.265    -44.2805   5.9764     0.0    3.2542
2547    2541.0   173.665    -44.2818   5.9751     0.0    3.2508
2557    2551.0   174.065    -44.2802   5.9767     0.0    3.2434
2567    2561.0   174.465    -44.2828   5.9741     0.0    3.2419
2577    2571.0   174.865    -44.2797   5.9772     0.0    3.2394
2587    2581.0   175.265    -44.2811   5.9758     0.0    3.2513
2597    2591.0   175.665    -44.2804   5.9765     0.0    3.2185
2607    2601.0   176.065    -44.2807   5.9761     0.0    3.2300
2617    2611.0   176.465    -44.2807   5.9762     0.0    3.2355
2627    2621.0   176.865    -44.2816   5.9752     0.0    3.2231
2637    2631.0   177.265    -44.2802   5.9766     0.0    3.2557
2647    2641.0   177.665    -44.2808   5.9760     0.0    3.2267
2657    2651.0   178.065    -44.2814   5.9755     0.0    3.2360
2667    2661.0   178.465    -44.2806   5.9762     0.0    3.2340
2677    2671.0   178.865    -44.2841   5.9727     0.0    3.2336
2687    2681.0   179.265    -44.2788   5.9780     0.0    3.2378
2697    2691.0   179.665    -44.2839   5.9730     0.0    3.2273
2707    2701.0   180.065    -44.2806   5.9763     0.0    3.2479
2717    2711.0   180.465    -44.2807   5.9761     0.0    3.2408
2727    2721.0   180.865    -44.2830   5.9738     0.0    3.2174
2737    2731.0   181.265    -44.2845   5.9724     0.0    3.2099
2747    2741.0   181.665    -44.2802   5.9767     0.0    3.2329
2757    2751.0   182.065    -44.2829   5.9740     0.0    3.2190
2767    2761.0   182.465    -44.2797   5.9772     0.0    3.2407
2777    2771.0   182.865    -44.2824   5.9745     0.0    3.2233
2787    2781.0   183.265    -44.2825   5.9744     0.0    3.2169
2797    2791.0   183.665    -44.2813   5.9756     0.0    3.2207
2807    2801.0   184.065    -44.2797   5.9771     0.0    3.2024
2817    2811.0   184.465    -44.2811   5.9758     0.0    3.2102
2827    2821.0   184.865    -44.2805   5.9764     0.0    3.2222
2837    2831.0   185.265    -44.2835   5.9734     0.0    3.2140
2847    2841.0   185.665    -44.2812   5.9757     0.0    3.2139
2857    2851.0   186.065    -44.2827   5.9741     0.0    3.2320
2867    2861.0   186.465    -44.2805   5.9763     0.0    3.2215
2877    2871.0   186.865    -44.2813   5.9756     0.0    3.2212
2887    2881.0   187.265    -44.2801   5.9767     0.0    3.2197
2897    2891.0   187.665    -44.2812   5.9756     0.0    3.1931
2907    2901.0   188.065    -44.2811   5.9757     0.0    3.2134
2917    2911.0   188.465    -44.2813   5.9756     0.0    3.2100
2927    2921.0   188.865    -44.2809   5.9759     0.0    3.2219
2937    2931.0   189.265    -44.2813   5.9755     0.0    3.2041
2947    2941.0   189.665    -44.2820   5.9748     0.0    3.2146
2957    2951.0   190.065    -44.2804   5.9765     0.0    3.2169
2967    2961.0   190.465    -44.2803   5.9765     0.0    3.2205
2977    2971.0   190.865    -44.2787   5.9782     0.0    3.2138
2987    2981.0   191.265    -44.2796   5.9773     0.0    3.2145
2997    2991.0   191.665    -44.2798   5.9771     0.0    3.2139
3007    3001.0   192.065    -44.2814   5.9754     0.0    3.2267
3017    3011.0   192.465    -44.2806   5.9763     0.0    3.2194
3027    3021.0   192.865    -44.2832   5.9737     0.0    3.2125
3037    3031.0   193.265    -44.2790   5.9778     0.0    3.2471
3047    3041.0   193.665    -44.2813   5.9756     0.0    3.2119
3057    3051.0   194.065    -44.2793   5.9775     0.0    3.2302
3067    3061.0   194.465    -44.2801   5.9768     0.0    3.2116
3077    3071.0   194.865    -44.2817   5.9752     0.0    3.2355
3087    3081.0   195.265    -44.2795   5.9774     0.0    3.2128
3097    3091.0   195.665    -44.2824   5.9744     0.0    3.2092
3107    3101.0   196.065    -44.2825   5.9744     0.0    3.2112
