           Num  Time(s)  PosAbs(mm)  Pos(mm)  Pos(%)  Load(kN)
0          1.0    0.005    -16.6375  -0.0023     0.0    0.0877
10        11.0    2.005    -16.5731   0.0620     0.0    0.1091
20        21.0    4.005    -16.5051   0.1301     0.0    0.1194
30        31.0    6.005    -16.4378   0.1974     0.0    0.1353
40        41.0    8.005    -16.3718   0.2634     0.0    0.1593
50        51.0   10.005    -16.3054   0.3298     0.0    0.1815
60        61.0   12.005    -16.2383   0.3969     0.0    0.2033
70        71.0   14.005    -16.1708   0.4644     0.0    0.2259
80        81.0   16.005    -16.1055   0.5297     0.0    0.2581
90        91.0   18.005    -16.0379   0.5973     0.0    0.2919
100      101.0   20.005    -15.9718   0.6634     0.0    0.3291
110      111.0   22.005    -15.9057   0.7295     0.0    0.3720
120      121.0   24.005    -15.8382   0.7970     0.0    0.4166
130      131.0   26.005    -15.7712   0.8640     0.0    0.4636
140      141.0   28.005    -15.7052   0.9299     0.0    0.5133
150      151.0   30.005    -15.6380   0.9972     0.0    0.5684
160      161.0   32.005    -15.5719   1.0633     0.0    0.6238
170      171.0   34.005    -15.5055   1.1297     0.0    0.6822
180      181.0   36.005    -15.4382   1.1970     0.0    0.7423
190      191.0   38.005    -15.3708   1.2644     0.0    0.8047
200      201.0   40.005    -15.3051   1.3301     0.0    0.8722
210      211.0   42.005    -15.2381   1.3971     0.0    0.9357
220      221.0   44.005    -15.1722   1.4629     0.0    1.0054
230      231.0   46.005    -15.1053   1.5299     0.0    1.0760
240      241.0   48.005    -15.0385   1.5967     0.0    1.1531
250      251.0   50.005    -14.9713   1.6639     0.0    1.2247
260      261.0   52.005    -14.9051   1.7301     0.0    1.3012
270      271.0   54.005    -14.8386   1.7966     0.0    1.3769
280      281.0   56.005    -14.7720   1.8632     0.0    1.4613
290      291.0   58.005    -14.7054   1.9298     0.0    1.5424
300      301.0   60.005    -14.6384   1.9968     0.0    1.6210
310      311.0   62.005    -14.5711   2.0640     0.0    1.7009
321      321.0   64.005    -14.4696   2.1656     0.0    1.8598
331      331.0   66.005    -14.3371   2.2981     0.0    2.0425
341      341.0   68.005    -14.2025   2.4327     0.0    2.2168
351      351.0   70.005    -14.0695   2.5657     0.0    2.3921
361      361.0   72.005    -13.9368   2.6984     0.0    2.5664
371      371.0   74.005    -13.8034   2.8318     0.0    2.7368
381      381.0   76.005    -13.6696   2.9656     0.0    2.9096
391      391.0   78.005    -13.5362   3.0990     0.0    3.0580
401      401.0   80.005    -13.4035   3.2317     0.0    3.1102
411      411.0   82.005    -13.2700   3.3652     0.0    3.2117
421      421.0   84.005    -13.1360   3.4992     0.0    3.2462
431      431.0   86.005    -13.0031   3.6321     0.0    3.2811
441      441.0   88.005    -12.8693   3.7659     0.0    3.3133
451      451.0   90.005    -12.7360   3.8992     0.0    3.3188
461      461.0   92.005    -12.6030   4.0322     0.0    3.3234
471      471.0   94.005    -12.4695   4.1657     0.0    3.3272
481      481.0   96.005    -12.3369   4.2983     0.0    3.3300
491      491.0   98.005    -12.2024   4.4328     0.0    3.3356
501      501.0  100.005    -12.0695   4.5657     0.0    3.3670
511      511.0  102.005    -11.9368   4.6984     0.0    3.3928
521      521.0  104.005    -11.8032   4.8320     0.0    3.4693
531      531.0  106.005    -11.6696   4.9656     0.0    3.5113
541      541.0  108.005    -11.5369   5.0983     0.0    3.5468
551      551.0  110.005    -11.4031   5.2321     0.0    3.5890
561      561.0  112.005    -11.2695   5.3657     0.0    3.6263
571      571.0  114.005    -11.1367   5.4985     0.0    3.6591
581      581.0  116.005    -11.0033   5.6319     0.0    3.6869
591      591.0  118.005    -10.8696   5.7656     0.0    3.7579
601      601.0  120.005    -10.7366   5.8985     0.0    3.8540
611      611.0  122.005    -10.6028   6.0324     0.0    3.9299
621      621.0  124.005    -10.4694   6.1658     0.0    3.9542
631      631.0  126.005    -10.3365   6.2987     0.0    3.9951
641      641.0  128.005    -10.2030   6.4321     0.0    4.1890
651      651.0  130.005    -10.0697   6.5654     0.0    4.4413
661      661.0  132.005     -9.9362   6.6990     0.0    4.6377
671      671.0  134.005     -9.8029   6.8323     0.0    4.8180
681      681.0  136.005     -9.6701   6.9651     0.0    4.9866
691      691.0  138.005     -9.5364   7.0988     0.0    5.1524
701      701.0  140.005     -9.4032   7.2320     0.0    5.3247
711      711.0  142.005     -9.2696   7.3656     0.0    5.4982
721      721.0  144.005     -9.1365   7.4987     0.0    5.6420
731      731.0  146.005     -9.0031   7.6321     0.0    5.7966
741      741.0  148.005     -8.8700   7.7652     0.0    5.9888
751      751.0  150.005     -8.7365   7.8987     0.0    6.1569
761      761.0  152.005     -8.6033   8.0318     0.0    6.3236
771      771.0  154.005     -8.4692   8.1660     0.0    6.5015
781      781.0  156.005     -8.3368   8.2984     0.0    6.7042
791      791.0  158.005     -8.2030   8.4322     0.0    6.9154
801      801.0  160.005     -8.0695   8.5656     0.0    7.1322
811      811.0  162.005     -7.9367   8.6984     0.0    7.3536
821      821.0  164.005     -7.8034   8.8318     0.0    7.5794
831      831.0  166.005     -7.6700   8.9651     0.0    7.8683
841      841.0  168.005     -7.5369   9.0983     0.0    8.1376
851      851.0  170.005     -7.4032   9.2320     0.0    8.4096
861      861.0  172.005     -7.2696   9.3656     0.0    8.6837
871      871.0  174.005     -7.1367   9.4985     0.0    8.9706
881      881.0  176.005     -7.0032   9.6320     0.0    9.2659
891      891.0  178.005     -6.8700   9.7651     0.0    9.5633
901      901.0  180.005     -6.7364   9.8987     0.0    9.8471
911      911.0  182.005     -6.6029  10.0322     0.0   10.2072
921      921.0  184.005     -6.4695  10.1657     0.0   10.5709
931      931.0  186.005     -6.3368  10.2984     0.0   10.9399
941      941.0  188.005     -6.2034  10.4318     0.0   11.3276
951      951.0  190.005     -6.0700  10.5652     0.0   11.7212
961      961.0  192.005     -5.9367  10.6985     0.0   12.1371
971      971.0  194.005     -5.8032  10.8319     0.0   12.5712
981      981.0  196.005     -5.6702  10.9650     0.0   13.0266
991      991.0  198.005     -5.5369  11.0982     0.0   13.4954
1001    1001.0  200.005     -5.4037  11.2315     0.0   13.9916
1011    1011.0  202.005     -5.2701  11.3651     0.0   14.5067
1021    1021.0  203.879     -5.1455  11.4897     0.0   15.0019
1037    1031.0  204.305     -5.1682  11.4669     0.0   14.4732
1047    1041.0  204.705     -5.1684  11.4668     0.0   14.3496
1057    1051.0  205.105     -5.1686  11.4666     0.0   14.2552
1067    1061.0  205.505     -5.1681  11.4670     0.0   14.1706
1077    1071.0  205.905     -5.1682  11.4670     0.0   14.0959
1087    1081.0  206.305     -5.1679  11.4672     0.0   14.0272
1097    1091.0  206.705     -5.1683  11.4668     0.0   13.9597
1107    1101.0  207.105     -5.1682  11.4670     0.0   13.9042
1117    1111.0  207.505     -5.1683  11.4669     0.0   13.8486
1127    1121.0  207.905     -5.1684  11.4668     0.0   13.8028
1137    1131.0  208.305     -5.1680  11.4671     0.0   13.7591
1147    1141.0  208.705     -5.1683  11.4669     0.0   13.7169
1157    1151.0  209.105     -5.1680  11.4672     0.0   13.6790
1167    1161.0  209.505     -5.1685  11.4667     0.0   13.6425
1177    1171.0  209.905     -5.1683  11.4669     0.0   13.6053
1187    1181.0  210.305     -5.1682  11.4670     0.0   13.5746
1197    1191.0  210.705     -5.1686  11.4666     0.0   13.5393
1207    1201.0  211.105     -5.1684  11.4668     0.0   13.5088
1217    1211.0  211.505     -5.1681  11.4670     0.0   13.4784
1228    1221.0  211.905     -5.1681  11.4671     0.0   13.4548
1238    1231.0  212.305     -5.1679  11.4672     0.0   13.4284
1248    1241.0  212.705     -5.1680  11.4672     0.0   13.4035
1258    1251.0  213.105     -5.1682  11.4670     0.0   13.3769
1268    1261.0  213.505     -5.1680  11.4671     0.0   13.3549
1278    1271.0  213.905     -5.1681  11.4671     0.0   13.3348
1288    1281.0  214.305     -5.1680  11.4672     0.0   13.3145
1298    1291.0  214.705     -5.1679  11.4673     0.0   13.2864
1308    1301.0  215.105     -5.1681  11.4671     0.0   13.2735
1318    1311.0  215.505     -5.1683  11.4669     0.0   13.2508
1328    1321.0  215.905     -5.1685  11.4667     0.0   13.2320
1338    1331.0  216.305     -5.1683  11.4668     0.0   13.2144
1348    1341.0  216.705     -5.1681  11.4670     0.0   13.1979
1358    1351.0  217.105     -5.1679  11.4673     0.0   13.1933
1368    1361.0  217.505     -5.1682  11.4670     0.0   13.1673
1378    1371.0  217.905     -5.1680  11.4672     0.0   13.1529
1388    1381.0  218.305     -5.1681  11.4671     0.0   13.1494
1398    1391.0  218.705     -5.1681  11.4671     0.0   13.1252
1408    1401.0  219.105     -5.1680  11.4672     0.0   13.1073
1418    1411.0  219.505     -5.1680  11.4671     0.0   13.0924
1428    1421.0  219.905     -5.1678  11.4674     0.0   13.0926
1438    1431.0  220.305     -5.1678  11.4674     0.0   13.0657
1448    1441.0  220.705     -5.1680  11.4672     0.0   13.0602
1458    1451.0  221.105     -5.1680  11.4671     0.0   13.0876
1468    1461.0  221.505     -5.1681  11.4671     0.0   13.0497
1478    1471.0  221.905     -5.1681  11.4671     0.0   12.9924
1488    1481.0  222.305     -5.1681  11.4671     0.0   13.0024
1498    1491.0  222.705     -5.1680  11.4672     0.0   12.9933
1508    1501.0  223.105     -5.1683  11.4669     0.0   12.9741
1518    1511.0  223.505     -5.1681  11.4671     0.0   12.9627
1528    1521.0  223.905     -5.1679  11.4673     0.0   12.9611
1538    1531.0  224.305     -5.1680  11.4672     0.0   12.9408
1548    1541.0  224.705     -5.1676  11.4676     0.0   12.9327
1558    1551.0  225.105     -5.1684  11.4668     0.0   12.9244
1568    1561.0  225.505     -5.1681  11.4670     0.0   12.9084
1578    1571.0  225.905     -5.1681  11.4671     0.0   12.8971
1588    1581.0  226.305     -5.1679  11.4673     0.0   12.8803
1598    1591.0  226.705     -5.1679  11.4673     0.0   12.8740
1608    1601.0  227.105     -5.1678  11.4674     0.0   12.8706
1618    1611.0  227.505     -5.1678  11.4674     0.0   12.8613
1628    1621.0  227.905     -5.1681  11.4671     0.0   12.8575
1638    1631.0  228.305     -5.1681  11.4671     0.0   12.8450
1648    1641.0  228.705     -5.1677  11.4675     0.0   12.8303
1658    1651.0  229.105     -5.1683  11.4669     0.0   12.8262
1668    1661.0  229.505     -5.1680  11.4672     0.0   12.8242
1678    1671.0  229.905     -5.1681  11.4671     0.0   12.8059
1688    1681.0  230.305     -5.1684  11.4668     0.0   12.8049
1698    1691.0  230.705     -5.1682  11.4669     0.0   12.7941
1708    1701.0  231.105     -5.1679  11.4673     0.0   12.7787
1718    1711.0  231.505     -5.1683  11.4669     0.0   12.7678
1728    1721.0  231.905     -5.1677  11.4674     0.0   12.7827
1738    1731.0  232.305     -5.1676  11.4675     0.0   12.7635
1748    1741.0  232.705     -5.1676  11.4675     0.0   12.7050
1758    1751.0  233.105     -5.1680  11.4672     0.0   12.7119
1768    1761.0  233.505     -5.1683  11.4669     0.0   12.6851
1778    1771.0  233.905     -5.1680  11.4672     0.0   12.7062
1788    1781.0  234.305     -5.1682  11.4670     0.0   12.6790
1798    1791.0  234.705     -5.1677  11.4675     0.0   12.6797
1808    1801.0  235.105     -5.1682  11.4670     0.0   12.6866
1818    1811.0  235.505     -5.1679  11.4673     0.0   12.6609
1828    1821.0  235.905     -5.1679  11.4673     0.0   12.6636
1838    1831.0  236.305     -5.1676  11.4676     0.0   12.6595
1848    1841.0  236.705     -5.1680  11.4672     0.0   12.6376
1858    1851.0  237.105     -5.1681  11.4671     0.0   12.6397
1868    1861.0  237.505     -5.1686  11.4666     0.0   12.6393
1878    1871.0  237.905     -5.1679  11.4673     0.0   12.6216
1888    1881.0  238.305     -5.1681  11.4671     0.0   12.6225
1898    1891.0  238.705     -5.1679  11.4673     0.0   12.6151
1908    1901.0  239.105     -5.1681  11.4671     0.0   12.6050
1918    1911.0  239.505     -5.1680  11.4672     0.0   12.6035
1928    1921.0  239.905     -5.1680  11.4672     0.0   12.5937
1938    1931.0  240.305     -5.1682  11.4670     0.0   12.6022
1948    1941.0  240.705     -5.1679  11.4673     0.0   12.5882
1958    1951.0  241.105     -5.1680  11.4672     0.0   12.5776
1968    1961.0  241.505     -5.1682  11.4670     0.0   12.5816
1978    1971.0  241.905     -5.1682  11.4670     0.0   12.5640
1988    1981.0  242.305     -5.1684  11.4668     0.0   12.5592
1998    1991.0  242.705     -5.1680  11.4672     0.0   12.5526
2008    2001.0  243.105     -5.1683  11.4669     0.0   12.5364
2018    2011.0  243.505     -5.1680  11.4672     0.0   12.5346
2028    2021.0  243.905     -5.1677  11.4674     0.0   12.5328
2038    2031.0  244.305     -5.1684  11.4668     0.0   12.5156
2048    2041.0  244.705     -5.1678  11.4674     0.0   12.5209
2058    2051.0  245.105     -5.1677  11.4674     0.0   12.5084
2068    2061.0  245.505     -5.1683  11.4669     0.0   12.5031
2078    2071.0  245.905     -5.1683  11.4668     0.0   12.5139
2088    2081.0  246.305     -5.1680  11.4672     0.0   12.5024
2098    2091.0  246.705     -5.1682  11.4670     0.0   12.4931
2108    2101.0  247.105     -5.1679  11.4673     0.0   12.4934
2118    2111.0  247.505     -5.1682  11.4670     0.0   12.4790
2128    2121.0  247.905     -5.1680  11.4672     0.0   12.4768
2138    2131.0  248.305     -5.1678  11.4674     0.0   12.4733
2148    2141.0  248.705     -5.1680  11.4672     0.0   12.4619
2158    2151.0  249.105     -5.1682  11.4670     0.0   12.4633
2168    2161.0  249.505     -5.1680  11.4671     0.0   12.4588
2178    2171.0  249.905     -5.1676  11.4676     0.0   12.4468
2188    2181.0  250.305     -5.1681  11.4671     0.0   12.4379
2198    2191.0  250.705     -5.1686  11.4666     0.0   12.4308
2208    2201.0  251.105     -5.1679  11.4673     0.0   12.4307
2218    2211.0  251.505     -5.1679  11.4673     0.0   12.4278
2228    2221.0  251.905     -5.1678  11.4674     0.0   12.4161
2238    2231.0  252.305     -5.1683  11.4669     0.0   12.4260
2248    2241.0  252.705     -5.1683  11.4669     0.0   12.4167
2258    2251.0  253.105     -5.1681  11.4671     0.0   12.4061
2268    2261.0  253.505     -5.1680  11.4672     0.0   12.4091
2278    2271.0  253.905     -5.1679  11.4672     0.0   12.3951
2288    2281.0  254.305     -5.1683  11.4669     0.0   12.3911
2298    2291.0  254.705     -5.1683  11.4668     0.0   12.3960
2308    2301.0  255.105     -5.1677  11.4675     0.0   12.3880
2318    2311.0  255.505     -5.1684  11.4668     0.0   12.3791
2328    2321.0  255.905     -5.1679  11.4673     0.0   12.3805
2338    2331.0  256.305     -5.1681  11.4671     0.0   12.3723
2348    2341.0  256.705     -5.1678  11.4674     0.0   12.3715
2358    2351.0  257.105     -5.1683  11.4669     0.0   12.3650
2368    2361.0  257.505     -5.1683  11.4669     0.0   12.3591
2378    2371.0  257.905     -5.1677  11.4674     0.0   12.3583
2388    2381.0  258.305     -5.1680  11.4672     0.0   12.3532
2398    2391.0  258.705     -5.1680  11.4672     0.0   12.3501
2408    2401.0  259.105     -5.1679  11.4673     0.0   12.3426
2418    2411.0  259.505     -5.1683  11.4669     0.0   12.3367
2428    2421.0  259.905     -5.1683  11.4669     0.0   12.3378
2438    2431.0  260.305     -5.1678  11.4674     0.0   12.3529
2448    2441.0  260.705     -5.1680  11.4672     0.0   12.3310
2458    2451.0  261.105     -5.1680  11.4672     0.0   12.3406
2468    2461.0  261.505     -5.1677  11.4675     0.0   12.3917
2478    2471.0  261.905     -5.1678  11.4674     0.0   12.2943
2488    2481.0  262.305     -5.1681  11.4671     0.0   12.3069
2498    2491.0  262.705     -5.1678  11.4674     0.0   12.2741
2508    2501.0  263.105     -5.1678  11.4674     0.0   12.2842
2518    2511.0  263.505     -5.1678  11.4674     0.0   12.2762
2528    2521.0  263.905     -5.1683  11.4669     0.0   12.2535
2538    2531.0  264.305     -5.1680  11.4672     0.0   12.2708
2548    2541.0  264.705     -5.1679  11.4673     0.0   12.2853
2558    2551.0  265.105     -5.1682  11.4670     0.0   12.2736
2568    2561.0  265.505     -5.1680  11.4672     0.0   12.2739
2578    2571.0  265.905     -5.1681  11.4671     0.0   12.2728
2588    2581.0  266.305     -5.1683  11.4669     0.0   12.2720
2598    2591.0  266.705     -5.1682  11.4670     0.0   12.2684
2608    2601.0  267.105     -5.1681  11.4670     0.0   12.2647
2618    2611.0  267.505     -5.1683  11.4669     0.0   12.2599
2628    2621.0  267.905     -5.1679  11.4672     0.0   12.2738
2638    2631.0  268.305     -5.1679  11.4672     0.0   12.2477
2648    2641.0  268.705     -5.1681  11.4671     0.0   12.2467
2658    2651.0  269.105     -5.1680  11.4672     0.0   12.2607
2668    2661.0  269.505     -5.1682  11.4670     0.0   12.2605
2678    2671.0  269.905     -5.1685  11.4667     0.0   12.2784
2688    2681.0  270.305     -5.1677  11.4675     0.0   12.2732
2698    2691.0  270.705     -5.1683  11.4669     0.0   12.2538
2708    2701.0  271.105     -5.1681  11.4671     0.0   12.2494
2718    2711.0  271.505     -5.1681  11.4671     0.0   12.2395
2728    2721.0  271.905     -5.1682  11.4670     0.0   12.2391
2738    2731.0  272.305     -5.1679  11.4673     0.0   12.2368
2748    2741.0  272.705     -5.1684  11.4668     0.0   12.2341
2758    2751.0  273.105     -5.1682  11.4670     0.0   12.2323
2768    2761.0  273.505     -5.1685  11.4667     0.0   12.2295
2778    2771.0  273.905     -5.1677  11.4675     0.0   12.2246
2788    2781.0  274.305     -5.1680  11.4672     0.0   12.2422
2798    2791.0  274.705     -5.1677  11.4675     0.0   12.2189
2808    2801.0  275.105     -5.1679  11.4672     0.0   12.1918
2818    2811.0  275.505     -5.1680  11.4672     0.0   12.2027
2828    2821.0  275.905     -5.1678  11.4674     0.0   12.1980
2838    2831.0  276.305     -5.1680  11.4672     0.0   12.1894
2848    2841.0  276.705     -5.1682  11.4670     0.0   12.1976
2858    2851.0  277.105     -5.1681  11.4671     0.0   12.1881
2868    2861.0  277.505     -5.1680  11.4671     0.0   12.1813
2878    2871.0  277.905     -5.1679  11.4673     0.0   12.1896
2888    2881.0  278.305     -5.1678  11.4674     0.0   12.1743
2898    2891.0  278.705     -5.1681  11.4671     0.0   12.1709
2908    2901.0  279.105     -5.1678  11.4674     0.0   12.1787
2918    2911.0  279.505     -5.1682  11.4670     0.0   12.1754
2928    2921.0  279.905     -5.1681  11.4671     0.0   12.2049
2938    2931.0  280.305     -5.1681  11.4671     0.0   12.1828
2948    2941.0  280.705     -5.1684  11.4668     0.0   12.1644
2958    2951.0  281.105     -5.1681  11.4670     0.0   12.1713
2968    2961.0  281.505     -5.1680  11.4672     0.0   12.1534
2978    2971.0  281.905     -5.1682  11.4669     0.0   12.1513
2988    2981.0  282.305     -5.1681  11.4671     0.0   12.1578
2998    2991.0  282.705     -5.1681  11.4671     0.0   12.1558
3008    3001.0  283.105     -5.1680  11.4672     0.0   12.1381
3018    3011.0  283.505     -5.1680  11.4671     0.0   12.1448
3028    3021.0  283.905     -5.1678  11.4674     0.0   12.1390
3038    3031.0  284.305     -5.1680  11.4672     0.0   12.1256
3048    3041.0  284.705     -5.1679  11.4673     0.0   12.1381
3058    3051.0  285.105     -5.1682  11.4670     0.0   12.1288
3068    3061.0  285.505     -5.1683  11.4669     0.0   12.1222
3078    3071.0  285.905     -5.1678  11.4674     0.0   12.1336
3088    3081.0  286.305     -5.1680  11.4672     0.0   12.1177
3098    3091.0  286.705     -5.1678  11.4673     0.0   12.1114
3108    3101.0  287.105     -5.1681  11.4671     0.0   12.1151
3118    3111.0  287.505     -5.1679  11.4673     0.0   12.1033
3128    3121.0  287.905     -5.1679  11.4673     0.0   12.1063
3138    3131.0  288.305     -5.1680  11.4672     0.0   12.1091
3148    3141.0  288.705     -5.1681  11.4671     0.0   12.0947
3158    3151.0  289.105     -5.1677  11.4674     0.0   12.1021
