         Num  Time(s)  PosAbs(mm)  Pos(mm)  Pos(%)  Load(kN)
0        1.0    0.005    -15.9379  -0.0002     0.0    0.0876
10      11.0    2.005    -15.8049   0.1327     0.0    0.1189
20      21.0    4.005    -15.6716   0.2661     0.0    0.1438
30      31.0    6.005    -15.5386   0.3991     0.0    0.2159
40      41.0    8.005    -15.4047   0.5330     0.0    0.3100
50      51.0   10.005    -15.2723   0.6653     0.0    0.4204
60      61.0   12.005    -15.1378   0.7999     0.0    0.5504
70      71.0   14.005    -15.0047   0.9330     0.0    0.7043
80      81.0   16.005    -14.8714   1.0663     0.0    0.8698
90      91.0   18.005    -14.7374   1.2002     0.0    1.0406
100    101.0   20.005    -14.6047   1.3330     0.0    1.2243
110    111.0   22.005    -14.4712   1.4665     0.0    1.4117
120    121.0   24.005    -14.3380   1.5997     0.0    1.6006
130    131.0   26.005    -14.2049   1.7328     0.0    1.7858
140    141.0   28.005    -14.0719   1.8657     0.0    1.9765
150    151.0   30.005    -13.9375   2.0002     0.0    2.1608
160    161.0   32.005    -13.8054   2.1323     0.0    2.3420
170    171.0   34.005    -13.6718   2.2659     0.0    2.5169
180    181.0   36.005    -13.5378   2.3999     0.0    2.6890
190    191.0   38.005    -13.4040   2.5337     0.0    2.8697
200    201.0   40.005    -13.2717   2.6660     0.0    3.0297
210    211.0   42.005    -13.1382   2.7995     0.0    3.0790
220    221.0   44.005    -13.0045   2.9331     0.0    3.1945
230    231.0   46.005    -12.8712   3.0665     0.0    3.2327
240    241.0   48.005    -12.7379   3.1998     0.0    3.2601
250    251.0   50.005    -12.6049   3.3328     0.0    3.2889
260    261.0   52.005    -12.4716   3.4661     0.0    3.2998
270    271.0   54.005    -12.3386   3.5990     0.0    3.3010
280    281.0   56.005    -12.2046   3.7331     0.0    3.2998
290    291.0   58.005    -12.0705   3.8672     0.0    3.3171
300    301.0   60.005    -11.9381   3.9996     0.0    3.3224
310    311.0   62.005    -11.8046   4.1330     0.0    3.3628
320    321.0   64.005    -11.6710   4.2666     0.0    3.3835
330    331.0   66.005    -11.5385   4.3992     0.0    3.4569
340    341.0   68.005    -11.4044   4.5332     0.0    3.4915
350    351.0   70.005    -11.2719   4.6658     0.0    3.4976
360    361.0   72.005    -11.1383   4.7994     0.0    3.5118
370    371.0   74.005    -11.0049   4.9328     0.0    3.5762
380    381.0   76.005    -10.8717   5.0660     0.0    3.6240
390    391.0   78.005    -10.7386   5.1991     0.0    3.6651
400    401.0   80.005    -10.6050   5.3327     0.0    3.7613
410    411.0   82.005    -10.4713   5.4664     0.0    3.8256
420    421.0   84.005    -10.3384   5.5993     0.0    3.8764
430    431.0   86.005    -10.2058   5.7319     0.0    3.9366
440    441.0   88.005    -10.0719   5.8658     0.0    3.9590
456    451.0   89.215    -10.0191   5.9186     0.0    3.9003
466    461.0   89.615    -10.0184   5.9192     0.0    3.8835
476    471.0   90.015    -10.0186   5.9191     0.0    3.8700
486    481.0   90.415    -10.0186   5.9191     0.0    3.8537
496    491.0   90.815    -10.0190   5.9186     0.0    3.8386
506    501.0   91.215    -10.0187   5.9190     0.0    3.8285
516    511.0   91.615    -10.0190   5.9187     0.0    3.8156
526    521.0   92.015    -10.0187   5.9190     0.0    3.8040
536    531.0   92.415    -10.0182   5.9195     0.0    3.7920
546    541.0   92.815    -10.0193   5.9184     0.0    3.7884
556    551.0   93.215    -10.0184   5.9193     0.0    3.7827
566    561.0   93.615    -10.0186   5.9191     0.0    3.7787
576    571.0   94.015    -10.0183   5.9193     0.0    3.7665
586    581.0   94.415    -10.0191   5.9185     0.0    3.7543
596    591.0   94.815    -10.0183   5.9194     0.0    3.7426
606    601.0   95.215    -10.0178   5.9199     0.0    3.7351
616    611.0   95.615    -10.0186   5.9190     0.0    3.7325
626    621.0   96.015    -10.0189   5.9188     0.0    3.7250
643    631.0   96.460    -10.0033   5.9344     0.0    3.8044
653    641.0   96.860     -9.9767   5.9610     0.0    3.9278
663    651.0   97.260     -9.9498   5.9879     0.0    4.0140
673    661.0   97.660     -9.9235   6.0142     0.0    4.0691
683    671.0   98.060     -9.8966   6.0410     0.0    4.1301
693    681.0   98.460     -9.8705   6.0672     0.0    4.1873
703    691.0   98.860     -9.8436   6.0941     0.0    4.2473
713    701.0   99.260     -9.8167   6.1210     0.0    4.2996
723    711.0   99.660     -9.7899   6.1478     0.0    4.3560
733    721.0  100.060     -9.7638   6.1739     0.0    4.4083
743    731.0  100.460     -9.7369   6.2008     0.0    4.4588
753    741.0  100.860     -9.7101   6.2276     0.0    4.5032
763    751.0  101.260     -9.6843   6.2534     0.0    4.5474
773    761.0  101.660     -9.6570   6.2807     0.0    4.5920
783    771.0  102.060     -9.6308   6.3069     0.0    4.6265
793    781.0  102.460     -9.6037   6.3339     0.0    4.6713
803    791.0  102.860     -9.5770   6.3607     0.0    4.7068
813    801.0  103.260     -9.5502   6.3875     0.0    4.7489
823    811.0  103.660     -9.5233   6.4144     0.0    4.7862
833    821.0  104.060     -9.4965   6.4411     0.0    4.8227
843    831.0  104.460     -9.4701   6.4676     0.0    4.8517
853    841.0  104.860     -9.4436   6.4940     0.0    4.8885
863    851.0  105.260     -9.4169   6.5208     0.0    4.9233
873    861.0  105.660     -9.3907   6.5469     0.0    4.9578
883    871.0  106.060     -9.3641   6.5736     0.0    4.9931
893    881.0  106.460     -9.3367   6.6010     0.0    5.0258
903    891.0  106.860     -9.3101   6.6276     0.0    5.0565
913    901.0  107.260     -9.2833   6.6544     0.0    5.0938
923    911.0  107.660     -9.2567   6.6810     0.0    5.1253
933    921.0  108.060     -9.2302   6.7075     0.0    5.1566
943    931.0  108.460     -9.2037   6.7340     0.0    5.1772
953    941.0  108.860     -9.1767   6.7609     0.0    5.2152
963    951.0  109.260     -9.1501   6.7875     0.0    5.2568
973    961.0  109.660     -9.1232   6.8145     0.0    5.2836
983    971.0  110.060     -9.0972   6.8405     0.0    5.3194
993    981.0  110.460     -9.0702   6.8675     0.0    5.3616
1003   991.0  110.860     -9.0436   6.8941     0.0    5.4003
1013  1001.0  111.260     -9.0171   6.9206     0.0    5.4392
1023  1011.0  111.660     -8.9903   6.9474     0.0    5.4700
1033  1021.0  112.060     -8.9635   6.9742     0.0    5.5086
1043  1031.0  112.460     -8.9368   7.0009     0.0    5.5498
1053  1041.0  112.860     -8.9103   7.0274     0.0    5.5772
1063  1051.0  113.260     -8.8838   7.0538     0.0    5.6062
1073  1061.0  113.660     -8.8570   7.0807     0.0    5.6337
1083  1071.0  114.060     -8.8302   7.1074     0.0    5.6594
1093  1081.0  114.460     -8.8037   7.1340     0.0    5.6845
1103  1091.0  114.860     -8.7771   7.1606     0.0    5.7187
1113  1101.0  115.260     -8.7503   7.1873     0.0    5.7445
1123  1111.0  115.660     -8.7241   7.2136     0.0    5.7763
1133  1121.0  116.060     -8.6971   7.2406     0.0    5.8052
1143  1131.0  116.460     -8.6701   7.2676     0.0    5.8379
1153  1141.0  116.860     -8.6435   7.2942     0.0    5.8746
1163  1151.0  117.260     -8.6173   7.3203     0.0    5.9032
1173  1161.0  117.660     -8.5903   7.3473     0.0    5.9359
1183  1171.0  118.060     -8.5639   7.3738     0.0    5.9715
1193  1181.0  118.460     -8.5367   7.4009     0.0    6.0053
1203  1191.0  118.860     -8.5105   7.4272     0.0    6.0481
1213  1201.0  119.260     -8.4836   7.4540     0.0    6.0801
1223  1211.0  119.660     -8.4571   7.4805     0.0    6.1130
1233  1221.0  120.060     -8.4305   7.5072     0.0    6.1445
1243  1231.0  120.460     -8.4042   7.5335     0.0    6.1790
1253  1241.0  120.860     -8.3776   7.5601     0.0    6.2051
1263  1251.0  121.260     -8.3505   7.5871     0.0    6.2443
1273  1261.0  121.660     -8.3236   7.6140     0.0    6.2746
1283  1271.0  122.060     -8.2974   7.6402     0.0    6.3107
1293  1281.0  122.460     -8.2704   7.6673     0.0    6.3500
1303  1291.0  122.860     -8.2438   7.6939     0.0    6.3867
1313  1301.0  123.260     -8.2170   7.7206     0.0    6.4289
1323  1311.0  123.660     -8.1901   7.7476     0.0    6.4641
1333  1321.0  124.060     -8.1639   7.7738     0.0    6.5034
1343  1331.0  124.460     -8.1376   7.8000     0.0    6.5382
1353  1341.0  124.860     -8.1103   7.8274     0.0    6.5816
1363  1351.0  125.260     -8.0839   7.8538     0.0    6.6226
1373  1361.0  125.660     -8.0567   7.8809     0.0    6.6678
1383  1371.0  126.060     -8.0304   7.9073     0.0    6.7131
1393  1381.0  126.460     -8.0038   7.9339     0.0    6.7531
1403  1391.0  126.860     -7.9768   7.9609     0.0    6.8034
1413  1401.0  127.260     -7.9507   7.9870     0.0    6.8496
1423  1411.0  127.660     -7.9240   8.0137     0.0    6.8975
1433  1421.0  128.060     -7.8974   8.0402     0.0    6.9449
1443  1431.0  128.460     -7.8700   8.0677     0.0    6.9941
1453  1441.0  128.860     -7.8439   8.0937     0.0    7.0357
1463  1451.0  129.260     -7.8172   8.1205     0.0    7.0826
1473  1461.0  129.660     -7.7907   8.1470     0.0    7.1332
1483  1471.0  130.060     -7.7639   8.1737     0.0    7.1804
1493  1481.0  130.460     -7.7372   8.2004     0.0    7.2255
1503  1491.0  130.860     -7.7106   8.2271     0.0    7.2659
1513  1501.0  131.260     -7.6837   8.2540     0.0    7.3128
1523  1511.0  131.660     -7.6575   8.2802     0.0    7.3569
1533  1521.0  132.060     -7.6307   8.3070     0.0    7.4106
1543  1531.0  132.460     -7.6039   8.3337     0.0    7.4546
1553  1541.0  132.860     -7.5775   8.3602     0.0    7.4965
1563  1551.0  133.260     -7.5503   8.3873     0.0    7.5512
1573  1561.0  133.660     -7.5238   8.4139     0.0    7.5971
1583  1571.0  134.060     -7.4973   8.4404     0.0    7.6407
1593  1581.0  134.460     -7.4707   8.4669     0.0    7.6913
1603  1591.0  134.860     -7.4438   8.4939     0.0    7.7389
1613  1601.0  135.260     -7.4173   8.5204     0.0    7.7882
1623  1611.0  135.660     -7.3907   8.5470     0.0    7.8577
1633  1621.0  136.060     -7.3641   8.5736     0.0    7.9137
1643  1631.0  136.460     -7.3374   8.6002     0.0    7.9841
1659  1641.0  136.850     -7.3430   8.5946     0.0    7.7669
1669  1651.0  137.250     -7.3431   8.5946     0.0    7.6915
1679  1661.0  137.650     -7.3434   8.5943     0.0    7.6188
1689  1671.0  138.050     -7.3436   8.5941     0.0    7.5655
1699  1681.0  138.450     -7.3435   8.5942     0.0    7.5148
1709  1691.0  138.850     -7.3433   8.5944     0.0    7.4723
1719  1701.0  139.250     -7.3431   8.5946     0.0    7.4417
1729  1711.0  139.650     -7.3434   8.5943     0.0    7.4136
1739  1721.0  140.050     -7.3429   8.5948     0.0    7.3791
1749  1731.0  140.450     -7.3434   8.5943     0.0    7.3461
1759  1741.0  140.850     -7.3433   8.5944     0.0    7.3151
1769  1751.0  141.250     -7.3430   8.5946     0.0    7.2988
1779  1761.0  141.650     -7.3429   8.5947     0.0    7.2669
1789  1771.0  142.050     -7.3432   8.5944     0.0    7.2520
1799  1781.0  142.450     -7.3431   8.5946     0.0    7.2233
1809  1791.0  142.850     -7.3435   8.5942     0.0    7.1986
1819  1801.0  143.250     -7.3433   8.5944     0.0    7.1857
1829  1811.0  143.650     -7.3432   8.5945     0.0    7.1700
1839  1821.0  144.050     -7.3428   8.5949     0.0    7.1633
1849  1831.0  144.450     -7.3431   8.5946     0.0    7.1528
1866  1841.0  144.920     -7.3328   8.6049     0.0    7.2415
1876  1851.0  145.320     -7.3071   8.6306     0.0    7.4565
1886  1861.0  145.720     -7.2805   8.6571     0.0    7.6512
1896  1871.0  146.120     -7.2535   8.6842     0.0    7.8152
1906  1881.0  146.520     -7.2268   8.7108     0.0    7.9672
1916  1891.0  146.920     -7.2006   8.7371     0.0    8.0911
1926  1901.0  147.320     -7.1733   8.7644     0.0    8.2118
1936  1911.0  147.720     -7.1463   8.7913     0.0    8.3012
1946  1921.0  148.120     -7.1201   8.8176     0.0    8.3907
1956  1931.0  148.520     -7.0934   8.8443     0.0    8.4797
1966  1941.0  148.920     -7.0665   8.8711     0.0    8.5627
1976  1951.0  149.320     -7.0399   8.8977     0.0    8.6415
1986  1961.0  149.720     -7.0136   8.9241     0.0    8.7085
1996  1971.0  150.120     -6.9869   8.9508     0.0    8.7846
2006  1981.0  150.520     -6.9600   8.9777     0.0    8.8580
2016  1991.0  150.920     -6.9331   9.0045     0.0    8.9207
2026  2001.0  151.320     -6.9068   9.0309     0.0    8.9884
2036  2011.0  151.720     -6.8801   9.0576     0.0    9.0587
2046  2021.0  152.120     -6.8535   9.0842     0.0    9.1259
2056  2031.0  152.520     -6.8271   9.1106     0.0    9.1896
2066  2041.0  152.920     -6.8000   9.1377     0.0    9.2506
2076  2051.0  153.320     -6.7738   9.1639     0.0    9.3215
2086  2061.0  153.720     -6.7467   9.1910     0.0    9.3880
2096  2071.0  154.120     -6.7204   9.2173     0.0    9.4549
2106  2081.0  154.520     -6.6937   9.2440     0.0    9.5223
2116  2091.0  154.920     -6.6670   9.2707     0.0    9.5915
2126  2101.0  155.320     -6.6400   9.2977     0.0    9.6557
2136  2111.0  155.720     -6.6138   9.3239     0.0    9.7244
2146  2121.0  156.120     -6.5872   9.3505     0.0    9.7856
2156  2131.0  156.520     -6.5606   9.3771     0.0    9.8550
2166  2141.0  156.920     -6.5337   9.4040     0.0    9.9313
2176  2151.0  157.320     -6.5069   9.4308     0.0    9.9987
2186  2161.0  157.720     -6.4801   9.4576     0.0   10.0685
2196  2171.0  158.120     -6.4539   9.4838     0.0   10.1407
2206  2181.0  158.520     -6.4274   9.5103     0.0   10.2119
2216  2191.0  158.920     -6.4004   9.5373     0.0   10.2798
2226  2201.0  159.320     -6.3739   9.5637     0.0   10.3570
2236  2211.0  159.720     -6.3473   9.5903     0.0   10.4302
2246  2221.0  160.120     -6.3210   9.6167     0.0   10.5008
2256  2231.0  160.520     -6.2940   9.6437     0.0   10.5824
2266  2241.0  160.920     -6.2672   9.6704     0.0   10.6524
2276  2251.0  161.320     -6.2402   9.6974     0.0   10.7286
2286  2261.0  161.720     -6.2138   9.7238     0.0   10.8003
2296  2271.0  162.120     -6.1874   9.7502     0.0   10.8771
2306  2281.0  162.520     -6.1603   9.7774     0.0   10.9543
2316  2291.0  162.920     -6.1337   9.8039     0.0   11.0311
2326  2301.0  163.320     -6.1073   9.8304     0.0   11.1115
2336  2311.0  163.720     -6.0804   9.8573     0.0   11.1895
2346  2321.0  164.120     -6.0538   9.8839     0.0   11.2725
2356  2331.0  164.520     -6.0272   9.9105     0.0   11.3472
2366  2341.0  164.920     -6.0007   9.9370     0.0   11.4292
2376  2351.0  165.320     -5.9739   9.9638     0.0   11.5129
2386  2361.0  165.720     -5.9472   9.9905     0.0   11.5959
2396  2371.0  166.120     -5.9205  10.0172     0.0   11.6790
2406  2381.0  166.520     -5.8938  10.0439     0.0   11.7591
2416  2391.0  166.920     -5.8671  10.0706     0.0   11.8453
2426  2401.0  167.320     -5.8408  10.0969     0.0   11.9298
2442  2411.0  167.725     -5.8316  10.1061     0.0   11.7642
2452  2421.0  168.125     -5.8329  10.1048     0.0   11.6236
2462  2431.0  168.525     -5.8329  10.1048     0.0   11.5115
2472  2441.0  168.925     -5.8327  10.1050     0.0   11.4257
2482  2451.0  169.325     -5.8332  10.1045     0.0   11.3484
2492  2461.0  169.725     -5.8331  10.1046     0.0   11.2729
2502  2471.0  170.125     -5.8330  10.1046     0.0   11.2116
2512  2481.0  170.525     -5.8330  10.1047     0.0   11.1731
2522  2491.0  170.925     -5.8329  10.1048     0.0   11.1230
2532  2501.0  171.325     -5.8331  10.1046     0.0   11.0784
2542  2511.0  171.725     -5.8329  10.1048     0.0   11.0385
2552  2521.0  172.125     -5.8327  10.1050     0.0   11.0006
2562  2531.0  172.525     -5.8330  10.1047     0.0   10.9563
2572  2541.0  172.925     -5.8329  10.1048     0.0   10.9354
2582  2551.0  173.325     -5.8329  10.1047     0.0   10.9026
2592  2561.0  173.725     -5.8329  10.1047     0.0   10.8700
2602  2571.0  174.125     -5.8329  10.1048     0.0   10.8402
2612  2581.0  174.525     -5.8327  10.1050     0.0   10.8165
2622  2591.0  174.925     -5.8328  10.1048     0.0   10.7893
2632  2601.0  175.325     -5.8329  10.1048     0.0   10.7673
2642  2611.0  175.725     -5.8328  10.1049     0.0   10.7397
2652  2621.0  176.125     -5.8331  10.1046     0.0   10.7116
2662  2631.0  176.525     -5.8325  10.1052     0.0   10.6939
2672  2641.0  176.925     -5.8327  10.1049     0.0   10.6802
2682  2651.0  177.325     -5.8329  10.1048     0.0   10.6514
2692  2661.0  177.725     -5.8329  10.1048     0.0   10.6418
2702  2671.0  178.125     -5.8330  10.1047     0.0   10.6180
2712  2681.0  178.525     -5.8328  10.1049     0.0   10.6050
2722  2691.0  178.925     -5.8325  10.1052     0.0   10.5898
2732  2701.0  179.325     -5.8329  10.1048     0.0   10.5709
2742  2711.0  179.725     -5.8326  10.1051     0.0   10.5320
2752  2721.0  180.125     -5.8329  10.1048     0.0   10.5240
2762  2731.0  180.525     -5.8329  10.1048     0.0   10.5143
2772  2741.0  180.925     -5.8329  10.1048     0.0   10.5008
2789  2751.0  181.405     -5.8226  10.1151     0.0   10.6397
2799  2761.0  181.805     -5.7963  10.1414     0.0   10.9607
2809  2771.0  182.205     -5.7695  10.1682     0.0   11.2551
2819  2781.0  182.605     -5.7430  10.1946     0.0   11.5154
2829  2791.0  183.005     -5.7163  10.2214     0.0   11.7614
2839  2801.0  183.405     -5.6896  10.2480     0.0   11.9674
2849  2811.0  183.805     -5.6632  10.2745     0.0   12.1544
2859  2821.0  184.205     -5.6365  10.3012     0.0   12.3232
2869  2831.0  184.605     -5.6096  10.3280     0.0   12.4528
2879  2841.0  185.005     -5.5832  10.3545     0.0   12.6091
2889  2851.0  185.405     -5.5563  10.3814     0.0   12.7570
2899  2861.0  185.805     -5.5298  10.4078     0.0   12.8909
2909  2871.0  186.205     -5.5030  10.4347     0.0   13.0197
2919  2881.0  186.605     -5.4766  10.4611     0.0   13.1477
2929  2891.0  187.005     -5.4498  10.4879     0.0   13.2672
2939  2901.0  187.405     -5.4232  10.5145     0.0   13.3822
2949  2911.0  187.805     -5.3966  10.5410     0.0   13.4846
2959  2921.0  188.205     -5.3699  10.5678     0.0   13.5983
2969  2931.0  188.605     -5.3433  10.5944     0.0   13.7046
2979  2941.0  189.005     -5.3166  10.6211     0.0   13.8159
2989  2951.0  189.405     -5.2900  10.6477     0.0   13.9278
2999  2961.0  189.805     -5.2635  10.6741     0.0   14.0334
3009  2971.0  190.205     -5.2366  10.7011     0.0   14.1499
3019  2981.0  190.605     -5.2099  10.7277     0.0   14.2458
3029  2991.0  191.005     -5.1835  10.7542     0.0   14.3552
3039  3001.0  191.405     -5.1569  10.7808     0.0   14.4612
3049  3011.0  191.805     -5.1299  10.8077     0.0   14.5717
3059  3021.0  192.205     -5.1035  10.8342     0.0   14.6745
3069  3031.0  192.605     -5.0767  10.8609     0.0   14.7786
3079  3041.0  193.005     -5.0499  10.8878     0.0   14.8917
3089  3051.0  193.405     -5.0233  10.9143     0.0   14.9977
3099  3061.0  193.805     -4.9966  10.9411     0.0   15.1128
3109  3071.0  194.205     -4.9703  10.9673     0.0   15.2162
3119  3081.0  194.605     -4.9435  10.9942     0.0   15.3298
3129  3091.0  195.005     -4.9168  11.0209     0.0   15.4377
3139  3101.0  195.405     -4.8902  11.0474     0.0   15.5467
3149  3111.0  195.805     -4.8635  11.0742     0.0   15.6645
3159  3121.0  196.205     -4.8371  11.1006     0.0   15.7745
3169  3131.0  196.605     -4.8102  11.1274     0.0   15.8957
3179  3141.0  197.004     -4.7837  11.1540     0.0   16.0061
3195  3151.0  197.425     -4.7984  11.1393     0.0   15.5584
3205  3161.0  197.825     -4.7986  11.1391     0.0   15.4130
3215  3171.0  198.225     -4.7985  11.1392     0.0   15.2924
3225  3181.0  198.625     -4.7988  11.1389     0.0   15.1949
3235  3191.0  199.025     -4.7987  11.1390     0.0   15.1031
3245  3201.0  199.425     -4.7985  11.1391     0.0   15.0353
3255  3211.0  199.825     -4.7984  11.1393     0.0   14.9659
3265  3221.0  200.225     -4.7989  11.1387     0.0   14.8923
3275  3231.0  200.625     -4.7985  11.1392     0.0   14.8389
3285  3241.0  201.025     -4.7988  11.1389     0.0   14.7841
3295  3251.0  201.425     -4.7988  11.1389     0.0   14.7554
