         Num  Time(s)  PosAbs(mm)  Pos(mm)  Pos(%)  Load(kN)
0        1.0    0.005    -13.1064  -0.0015     0.0    0.0911
10      11.0    2.005    -12.9726   0.1323     0.0    0.1147
20      21.0    4.005    -12.8396   0.2652     0.0    0.1303
30      31.0    6.005    -12.7063   0.3986     0.0    0.1526
40      41.0    8.005    -12.5723   0.5326     0.0    0.1867
50      51.0   10.005    -12.4389   0.6660     0.0    0.2237
60      61.0   12.005    -12.3053   0.7995     0.0    0.2666
70      71.0   14.005    -12.1723   0.9326     0.0    0.3197
80      81.0   16.005    -12.0389   1.0660     0.0    0.3846
90      91.0   18.005    -11.9060   1.1989     0.0    0.4545
100    101.0   20.005    -11.7725   1.3324     0.0    0.5348
110    111.0   22.005    -11.6388   1.4661     0.0    0.6276
120    121.0   24.005    -11.5062   1.5987     0.0    0.7301
130    131.0   26.005    -11.3726   1.7323     0.0    0.8397
140    141.0   28.005    -11.2387   1.8662     0.0    0.9629
150    151.0   30.005    -11.1053   1.9996     0.0    1.0985
160    161.0   32.005    -10.9728   2.1321     0.0    1.2436
170    171.0   34.005    -10.8383   2.2666     0.0    1.4112
180    181.0   36.005    -10.7056   2.3993     0.0    1.5889
190    191.0   38.005    -10.5719   2.5330     0.0    1.7836
200    201.0   40.005    -10.4383   2.6666     0.0    1.9942
210    211.0   42.005    -10.3059   2.7990     0.0    2.2201
220    221.0   44.005    -10.1726   2.9323     0.0    2.4628
230    231.0   46.005    -10.0393   3.0656     0.0    2.7230
240    241.0   48.005     -9.9058   3.1991     0.0    3.0000
250    251.0   50.005     -9.7723   3.3326     0.0    3.1891
260    261.0   52.005     -9.6392   3.4657     0.0    3.2500
270    271.0   54.005     -9.5059   3.5990     0.0    3.2962
280    281.0   56.005     -9.3724   3.7325     0.0    3.3054
290    291.0   58.005     -9.2388   3.8661     0.0    3.3196
300    301.0   60.005     -9.1055   3.9994     0.0    3.3374
310    311.0   62.005     -8.9726   4.1323     0.0    3.3477
320    321.0   64.005     -8.8388   4.2661     0.0    3.3548
330    331.0   66.005     -8.7057   4.3992     0.0    3.3640
340    341.0   68.005     -8.5724   4.5325     0.0    3.3784
350    351.0   70.005     -8.4390   4.6659     0.0    3.3847
360    361.0   72.005     -8.3059   4.7990     0.0    3.4283
370    371.0   74.005     -8.1724   4.9325     0.0    3.4950
380    381.0   76.005     -8.0391   5.0658     0.0    3.5488
390    391.0   78.005     -7.9062   5.1987     0.0    3.5901
400    401.0   80.005     -7.7728   5.3321     0.0    3.6660
410    411.0   82.005     -7.6390   5.4659     0.0    3.7010
420    421.0   84.005     -7.5056   5.5993     0.0    3.7763
430    431.0   86.005     -7.3721   5.7328     0.0    3.8515
440    441.0   88.005     -7.2389   5.8660     0.0    3.9300
456    451.0   89.555     -7.1546   5.9503     0.0    3.9006
466    461.0   89.955     -7.1545   5.9504     0.0    3.8967
476    471.0   90.355     -7.1547   5.9502     0.0    3.8862
486    481.0   90.755     -7.1549   5.9500     0.0    3.8809
496    491.0   91.155     -7.1553   5.9496     0.0    3.8753
506    501.0   91.555     -7.1552   5.9497     0.0    3.8704
516    511.0   91.955     -7.1550   5.9499     0.0    3.8652
526    521.0   92.355     -7.1547   5.9501     0.0    3.8609
536    531.0   92.755     -7.1549   5.9500     0.0    3.8521
546    541.0   93.155     -7.1544   5.9505     0.0    3.8577
556    551.0   93.555     -7.1547   5.9502     0.0    3.8447
566    561.0   93.955     -7.1546   5.9503     0.0    3.8406
576    571.0   94.355     -7.1542   5.9507     0.0    3.8328
586    581.0   94.755     -7.1546   5.9503     0.0    3.8317
596    591.0   95.155     -7.1547   5.9501     0.0    3.8245
606    601.0   95.555     -7.1548   5.9501     0.0    3.8191
616    611.0   95.955     -7.1548   5.9501     0.0    3.8179
626    621.0   96.355     -7.1545   5.9504     0.0    3.8146
637    631.0   96.755     -7.1544   5.9505     0.0    3.8098
647    641.0   97.155     -7.1543   5.9506     0.0    3.8015
657    651.0   97.555     -7.1545   5.9504     0.0    3.7989
667    661.0   97.955     -7.1544   5.9505     0.0    3.7972
677    671.0   98.355     -7.1546   5.9503     0.0    3.7920
687    681.0   98.755     -7.1545   5.9504     0.0    3.7836
697    691.0   99.155     -7.1546   5.9503     0.0    3.7813
707    701.0   99.555     -7.1545   5.9504     0.0    3.7756
717    711.0   99.955     -7.1541   5.9508     0.0    3.7810
727    721.0  100.355     -7.1543   5.9506     0.0    3.7748
737    731.0  100.755     -7.1544   5.9505     0.0    3.7708
747    741.0  101.155     -7.1544   5.9505     0.0    3.7696
757    751.0  101.555     -7.1539   5.9510     0.0    3.7667
767    761.0  101.955     -7.1543   5.9505     0.0    3.7604
777    771.0  102.355     -7.1541   5.9508     0.0    3.7601
787    781.0  102.755     -7.1543   5.9506     0.0    3.7560
797    791.0  103.155     -7.1543   5.9506     0.0    3.7483
807    801.0  103.555     -7.1543   5.9506     0.0    3.7434
817    811.0  103.955     -7.1542   5.9507     0.0    3.7433
827    821.0  104.355     -7.1543   5.9506     0.0    3.7466
837    831.0  104.755     -7.1545   5.9504     0.0    3.7448
847    841.0  105.155     -7.1541   5.9508     0.0    3.7403
857    851.0  105.555     -7.1543   5.9506     0.0    3.7400
867    861.0  105.955     -7.1544   5.9505     0.0    3.7334
877    871.0  106.355     -7.1540   5.9509     0.0    3.7329
887    881.0  106.755     -7.1542   5.9507     0.0    3.7305
897    891.0  107.155     -7.1541   5.9508     0.0    3.7310
907    901.0  107.555     -7.1543   5.9506     0.0    3.7258
917    911.0  107.955     -7.1542   5.9507     0.0    3.7257
927    921.0  108.355     -7.1543   5.9506     0.0    3.7209
937    931.0  108.755     -7.1543   5.9506     0.0    3.7169
947    941.0  109.155     -7.1544   5.9505     0.0    3.7154
957    951.0  109.555     -7.1540   5.9509     0.0    3.7133
967    961.0  109.955     -7.1542   5.9507     0.0    3.7091
977    971.0  110.355     -7.1541   5.9508     0.0    3.7137
987    981.0  110.755     -7.1542   5.9507     0.0    3.7066
997    991.0  111.155     -7.1542   5.9507     0.0    3.7092
1007  1001.0  111.555     -7.1544   5.9505     0.0    3.7041
1017  1011.0  111.955     -7.1543   5.9506     0.0    3.7039
1027  1021.0  112.355     -7.1543   5.9505     0.0    3.6986
1037  1031.0  112.755     -7.1538   5.9511     0.0    3.6960
1047  1041.0  113.155     -7.1545   5.9504     0.0    3.6966
1057  1051.0  113.555     -7.1545   5.9504     0.0    3.6939
1067  1061.0  113.955     -7.1543   5.9506     0.0    3.6948
1077  1071.0  114.355     -7.1541   5.9508     0.0    3.6866
1087  1081.0  114.755     -7.1543   5.9506     0.0    3.6854
1097  1091.0  115.155     -7.1542   5.9507     0.0    3.6824
1107  1101.0  115.555     -7.1539   5.9510     0.0    3.6813
1117  1111.0  115.955     -7.1540   5.9509     0.0    3.6815
1127  1121.0  116.355     -7.1541   5.9508     0.0    3.6772
1137  1131.0  116.755     -7.1542   5.9507     0.0    3.6755
1147  1141.0  117.155     -7.1540   5.9508     0.0    3.6725
1157  1151.0  117.555     -7.1542   5.9507     0.0    3.6713
1167  1161.0  117.955     -7.1539   5.9510     0.0    3.6734
1177  1171.0  118.355     -7.1543   5.9506     0.0    3.6659
1187  1181.0  118.755     -7.1539   5.9510     0.0    3.6675
1197  1191.0  119.155     -7.1540   5.9509     0.0    3.6619
1207  1201.0  119.555     -7.1542   5.9507     0.0    3.6635
1217  1211.0  119.955     -7.1545   5.9504     0.0    3.6604
1227  1221.0  120.355     -7.1544   5.9505     0.0    3.6596
1237  1231.0  120.755     -7.1540   5.9509     0.0    3.6547
1247  1241.0  121.155     -7.1540   5.9509     0.0    3.6577
1257  1251.0  121.555     -7.1543   5.9506     0.0    3.6564
1267  1261.0  121.955     -7.1540   5.9509     0.0    3.6565
1277  1271.0  122.355     -7.1540   5.9508     0.0    3.6599
1287  1281.0  122.755     -7.1543   5.9506     0.0    3.6582
1297  1291.0  123.155     -7.1538   5.9511     0.0    3.6535
1307  1301.0  123.555     -7.1542   5.9507     0.0    3.6522
1317  1311.0  123.955     -7.1542   5.9507     0.0    3.6544
1327  1321.0  124.355     -7.1541   5.9508     0.0    3.6467
1337  1331.0  124.755     -7.1543   5.9506     0.0    3.6474
1347  1341.0  125.155     -7.1539   5.9510     0.0    3.6435
1357  1351.0  125.555     -7.1542   5.9507     0.0    3.6427
1367  1361.0  125.955     -7.1545   5.9504     0.0    3.6377
1377  1371.0  126.355     -7.1541   5.9508     0.0    3.6357
1387  1381.0  126.755     -7.1543   5.9506     0.0    3.6401
1397  1391.0  127.155     -7.1543   5.9506     0.0    3.6349
1407  1401.0  127.555     -7.1541   5.9508     0.0    3.6322
1417  1411.0  127.955     -7.1539   5.9510     0.0    3.6289
1427  1421.0  128.355     -7.1542   5.9507     0.0    3.6289
1437  1431.0  128.755     -7.1546   5.9503     0.0    3.6240
1447  1441.0  129.155     -7.1540   5.9509     0.0    3.6277
1458  1451.0  129.555     -7.1543   5.9505     0.0    3.6251
1474  1461.0  130.020     -7.1308   5.9741     0.0    3.7899
1484  1471.0  130.420     -7.1041   6.0008     0.0    3.9450
1494  1481.0  130.820     -7.0772   6.0277     0.0    4.0074
1504  1491.0  131.220     -7.0509   6.0540     0.0    4.0364
1514  1501.0  131.620     -7.0243   6.0806     0.0    4.0640
1524  1511.0  132.020     -6.9977   6.1072     0.0    4.0906
1534  1521.0  132.420     -6.9711   6.1338     0.0    4.1143
1544  1531.0  132.820     -6.9444   6.1605     0.0    4.1177
1554  1541.0  133.220     -6.9181   6.1868     0.0    4.1395
1564  1551.0  133.620     -6.8910   6.2139     0.0    4.2110
1574  1561.0  134.020     -6.8648   6.2401     0.0    4.2960
1584  1571.0  134.420     -6.8378   6.2671     0.0    4.3880
1594  1581.0  134.820     -6.8112   6.2937     0.0    4.4814
1604  1591.0  135.220     -6.7845   6.3204     0.0    4.5780
1614  1601.0  135.620     -6.7580   6.3469     0.0    4.6716
1624  1611.0  136.020     -6.7311   6.3738     0.0    4.7629
1634  1621.0  136.420     -6.7046   6.4003     0.0    4.8326
1644  1631.0  136.820     -6.6781   6.4268     0.0    4.9097
1654  1641.0  137.220     -6.6514   6.4535     0.0    4.9830
1664  1651.0  137.620     -6.6248   6.4801     0.0    5.0591
1674  1661.0  138.020     -6.5977   6.5072     0.0    5.1321
1684  1671.0  138.420     -6.5710   6.5339     0.0    5.2058
1694  1681.0  138.820     -6.5447   6.5602     0.0    5.2800
1704  1691.0  139.220     -6.5181   6.5868     0.0    5.3460
1714  1701.0  139.620     -6.4915   6.6134     0.0    5.4191
1724  1711.0  140.020     -6.4649   6.6400     0.0    5.4683
1734  1721.0  140.420     -6.4379   6.6670     0.0    5.5086
1744  1731.0  140.820     -6.4115   6.6934     0.0    5.5546
1754  1741.0  141.220     -6.3845   6.7204     0.0    5.6124
1764  1751.0  141.620     -6.3586   6.7463     0.0    5.6752
1774  1761.0  142.020     -6.3317   6.7732     0.0    5.7417
1784  1771.0  142.420     -6.3049   6.8000     0.0    5.8044
1794  1781.0  142.820     -6.2782   6.8267     0.0    5.8617
1804  1791.0  143.220     -6.2518   6.8531     0.0    5.9212
1814  1801.0  143.620     -6.2251   6.8798     0.0    5.9743
1824  1811.0  144.020     -6.1982   6.9066     0.0    6.0385
1834  1821.0  144.420     -6.1715   6.9334     0.0    6.0926
1844  1831.0  144.820     -6.1452   6.9597     0.0    6.1500
1854  1841.0  145.220     -6.1184   6.9865     0.0    6.2044
1864  1851.0  145.620     -6.0917   7.0132     0.0    6.2605
1874  1861.0  146.020     -6.0650   7.0399     0.0    6.3290
1884  1871.0  146.420     -6.0385   7.0664     0.0    6.3931
1894  1881.0  146.820     -6.0116   7.0933     0.0    6.4762
1904  1891.0  147.220     -5.9854   7.1195     0.0    6.5612
1914  1901.0  147.620     -5.9586   7.1463     0.0    6.6561
1924  1911.0  148.020     -5.9318   7.1731     0.0    6.7492
1934  1921.0  148.420     -5.9052   7.1997     0.0    6.8417
1944  1931.0  148.820     -5.8787   7.2262     0.0    6.9410
1954  1941.0  149.220     -5.8516   7.2533     0.0    7.0297
1964  1951.0  149.620     -5.8252   7.2797     0.0    7.1287
1974  1961.0  150.020     -5.7983   7.3066     0.0    7.2201
1984  1971.0  150.420     -5.7717   7.3332     0.0    7.3107
1994  1981.0  150.820     -5.7452   7.3597     0.0    7.4016
2004  1991.0  151.220     -5.7188   7.3861     0.0    7.5148
2014  2001.0  151.620     -5.6918   7.4131     0.0    7.6539
2024  2011.0  152.020     -5.6653   7.4396     0.0    7.7970
2034  2021.0  152.420     -5.6385   7.4664     0.0    7.9470
2050  2031.0  152.850     -5.6399   7.4650     0.0    7.7873
2060  2041.0  153.250     -5.6405   7.4644     0.0    7.7202
2070  2051.0  153.650     -5.6403   7.4646     0.0    7.6707
2080  2061.0  154.050     -5.6407   7.4642     0.0    7.6312
2090  2071.0  154.450     -5.6405   7.4644     0.0    7.5933
2100  2081.0  154.850     -5.6405   7.4644     0.0    7.5648
2110  2091.0  155.250     -5.6405   7.4644     0.0    7.5312
2120  2101.0  155.650     -5.6402   7.4647     0.0    7.5075
2130  2111.0  156.050     -5.6404   7.4645     0.0    7.4874
2140  2121.0  156.450     -5.6401   7.4648     0.0    7.4625
2150  2131.0  156.850     -5.6405   7.4644     0.0    7.4422
2160  2141.0  157.250     -5.6403   7.4646     0.0    7.4201
2170  2151.0  157.650     -5.6401   7.4648     0.0    7.4006
2180  2161.0  158.050     -5.6399   7.4650     0.0    7.3899
2190  2171.0  158.450     -5.6399   7.4650     0.0    7.3735
2200  2181.0  158.850     -5.6404   7.4645     0.0    7.3507
2210  2191.0  159.250     -5.6401   7.4648     0.0    7.3377
2220  2201.0  159.650     -5.6400   7.4649     0.0    7.3193
2230  2211.0  160.050     -5.6403   7.4646     0.0    7.3105
2241  2221.0  160.450     -5.6403   7.4646     0.0    7.2976
2251  2231.0  160.850     -5.6401   7.4648     0.0    7.2872
2261  2241.0  161.250     -5.6399   7.4650     0.0    7.2708
2271  2251.0  161.650     -5.6400   7.4649     0.0    7.2579
2281  2261.0  162.050     -5.6398   7.4651     0.0    7.2545
2291  2271.0  162.450     -5.6399   7.4650     0.0    7.2405
2301  2281.0  162.850     -5.6403   7.4646     0.0    7.2252
2311  2291.0  163.250     -5.6402   7.4647     0.0    7.2235
2321  2301.0  163.650     -5.6399   7.4650     0.0    7.2108
2331  2311.0  164.050     -5.6399   7.4650     0.0    7.2003
2341  2321.0  164.450     -5.6398   7.4651     0.0    7.1881
2351  2331.0  164.850     -5.6399   7.4650     0.0    7.1810
2361  2341.0  165.250     -5.6398   7.4651     0.0    7.1732
2371  2351.0  165.650     -5.6400   7.4649     0.0    7.1644
2381  2361.0  166.050     -5.6400   7.4648     0.0    7.1573
2391  2371.0  166.450     -5.6401   7.4648     0.0    7.1529
2401  2381.0  166.850     -5.6398   7.4651     0.0    7.1483
2411  2391.0  167.250     -5.6399   7.4650     0.0    7.1343
2421  2401.0  167.650     -5.6401   7.4648     0.0    7.1226
2431  2411.0  168.050     -5.6400   7.4649     0.0    7.1220
2441  2421.0  168.450     -5.6398   7.4651     0.0    7.1102
2451  2431.0  168.850     -5.6398   7.4651     0.0    7.1033
2461  2441.0  169.250     -5.6398   7.4651     0.0    7.0986
2471  2451.0  169.650     -5.6402   7.4647     0.0    7.0913
2481  2461.0  170.050     -5.6397   7.4652     0.0    7.0803
2491  2471.0  170.450     -5.6400   7.4649     0.0    7.0781
2501  2481.0  170.850     -5.6398   7.4651     0.0    7.0717
2511  2491.0  171.250     -5.6399   7.4650     0.0    7.0644
2521  2501.0  171.650     -5.6397   7.4652     0.0    7.0565
2531  2511.0  172.050     -5.6398   7.4651     0.0    7.0502
2541  2521.0  172.450     -5.6400   7.4649     0.0    7.0476
2551  2531.0  172.850     -5.6402   7.4646     0.0    7.0404
2561  2541.0  173.250     -5.6399   7.4650     0.0    7.0367
2571  2551.0  173.650     -5.6399   7.4650     0.0    7.0283
2581  2561.0  174.050     -5.6400   7.4649     0.0    7.0252
2591  2571.0  174.450     -5.6399   7.4650     0.0    7.0200
2601  2581.0  174.850     -5.6402   7.4647     0.0    7.0133
2611  2591.0  175.250     -5.6399   7.4649     0.0    7.0073
2621  2601.0  175.650     -5.6399   7.4650     0.0    7.0063
2631  2611.0  176.050     -5.6402   7.4647     0.0    6.9997
2641  2621.0  176.450     -5.6401   7.4648     0.0    6.9964
2651  2631.0  176.850     -5.6399   7.4650     0.0    6.9971
2661  2641.0  177.250     -5.6398   7.4651     0.0    6.9828
2671  2651.0  177.650     -5.6401   7.4648     0.0    6.9830
2681  2661.0  178.050     -5.6400   7.4648     0.0    6.9844
2691  2671.0  178.450     -5.6400   7.4649     0.0    6.9802
2701  2681.0  178.850     -5.6401   7.4648     0.0    6.9687
2711  2691.0  179.250     -5.6399   7.4650     0.0    6.9629
2721  2701.0  179.650     -5.6400   7.4649     0.0    6.9636
2731  2711.0  180.050     -5.6400   7.4649     0.0    6.9594
2741  2721.0  180.450     -5.6402   7.4647     0.0    6.9494
2751  2731.0  180.850     -5.6399   7.4650     0.0    6.9413
2761  2741.0  181.250     -5.6402   7.4647     0.0    6.9405
2771  2751.0  182.690     -5.6400   7.4648     0.0    6.9204
2781  2761.0  184.135     -5.6398   7.4651     0.0    6.9069
2791  2771.0  185.585     -5.6400   7.4649     0.0    6.8934
2801  2781.0  187.040     -5.6399   7.4650     0.0    6.8838
2811  2791.0  188.500     -5.6400   7.4649     0.0    6.8646
2821  2801.0  189.955     -5.6401   7.4648     0.0    6.8543
2831  2811.0  191.410     -5.6401   7.4648     0.0    6.8470
2841  2821.0  192.545     -5.6403   7.4646     0.0    6.8423
2851  2831.0  192.945     -5.6402   7.4646     0.0    6.8323
2861  2841.0  193.345     -5.6402   7.4647     0.0    6.8246
2871  2851.0  193.745     -5.6401   7.4648     0.0    6.8237
2881  2861.0  194.145     -5.6403   7.4646     0.0    6.8159
2891  2871.0  194.545     -5.6404   7.4645     0.0    6.8244
2901  2881.0  194.945     -5.6404   7.4645     0.0    6.8106
2911  2891.0  195.345     -5.6404   7.4645     0.0    6.8085
2921  2901.0  195.745     -5.6401   7.4648     0.0    6.8105
2931  2911.0  196.145     -5.6402   7.4647     0.0    6.8028
2941  2921.0  196.545     -5.6402   7.4647     0.0    6.8043
2951  2931.0  196.945     -5.6401   7.4648     0.0    6.7993
2961  2941.0  197.345     -5.6402   7.4647     0.0    6.7957
2971  2951.0  197.745     -5.6400   7.4649     0.0    6.7947
2981  2961.0  198.145     -5.6403   7.4646     0.0    6.7893
2991  2971.0  198.580     -5.6403   7.4646     0.0    6.7953
3001  2981.0  199.035     -5.6401   7.4648     0.0    6.7850
3011  2991.0  199.470     -5.6404   7.4645     0.0    6.7814
3021  3001.0  199.870     -5.6407   7.4642     0.0    6.7842
3031  3011.0  200.270     -5.6402   7.4647     0.0    6.7763
3041  3021.0  200.670     -5.6404   7.4645     0.0    6.7729
3051  3031.0  201.070     -5.6404   7.4645     0.0    6.7736
3061  3041.0  201.470     -5.6404   7.4645     0.0    6.7689
3071  3051.0  201.870     -5.6405   7.4644     0.0    6.7665
3081  3061.0  202.270     -5.6401   7.4648     0.0    6.7707
3091  3071.0  202.670     -5.6401   7.4648     0.0    6.7669
3101  3081.0  203.070     -5.6406   7.4643     0.0    6.7684
3111  3091.0  203.470     -5.6402   7.4647     0.0    6.7676
3121  3101.0  203.870     -5.6402   7.4647     0.0    6.7618
3131  3111.0  204.270     -5.6406   7.4643     0.0    6.7614
3141  3121.0  204.670     -5.6407   7.4642     0.0    6.7545
3158  3131.0  205.180     -5.6324   7.4725     0.0    6.8670
3168  3141.0  205.580     -5.6059   7.4990     0.0    7.2008
3178  3151.0  205.980     -5.5795   7.5254     0.0    7.4988
3188  3161.0  206.380     -5.5530   7.5519     0.0    7.7697
3198  3171.0  206.780     -5.5263   7.5786     0.0    8.0342
3208  3181.0  207.180     -5.4993   7.6056     0.0    8.2640
3218  3191.0  207.580     -5.4728   7.6321     0.0    8.4517
3228  3201.0  207.980     -5.4461   7.6588     0.0    8.6514
3238  3211.0  208.380     -5.4194   7.6855     0.0    8.8475
3248  3221.0  208.780     -5.3932   7.7117     0.0    9.0410
3258  3231.0  209.180     -5.3664   7.7385     0.0    9.2398
3268  3241.0  209.580     -5.3400   7.7649     0.0    9.4313
3278  3251.0  210.240     -5.2957   7.8092     0.0    9.7555
