           Num  Time(s)  PosAbs(mm)  Pos(mm)  Pos(%)  Load(kN)
0          1.0    0.005    -10.6527   0.0007     0.0    0.0922
10        11.0    2.005    -10.5197   0.1337     0.0    0.1462
20        21.0    4.005    -10.3865   0.2669     0.0    0.2043
30        31.0    6.005    -10.2535   0.3999     0.0    0.2668
40        41.0    8.005    -10.1198   0.5336     0.0    0.3323
50        51.0   10.005     -9.9865   0.6669     0.0    0.4064
60        61.0   12.005     -9.8531   0.8003     0.0    0.4894
70        71.0   14.005     -9.7202   0.9332     0.0    0.5934
80        81.0   16.005     -9.5870   1.0664     0.0    0.7127
90        91.0   18.005     -9.4539   1.1995     0.0    0.8463
100      101.0   20.005     -9.3201   1.3333     0.0    1.0030
110      111.0   22.005     -9.1871   1.4662     0.0    1.1807
120      121.0   24.005     -9.0536   1.5997     0.0    1.3726
130      131.0   26.005     -8.9204   1.7330     0.0    1.5923
140      141.0   28.005     -8.7869   1.8664     0.0    1.8249
150      151.0   30.005     -8.6534   2.0000     0.0    2.0902
160      161.0   32.005     -8.5202   2.1331     0.0    2.3810
170      171.0   34.005     -8.3872   2.2662     0.0    2.6860
180      181.0   36.005     -8.2539   2.3995     0.0    3.0041
190      191.0   38.005     -8.1203   2.5331     0.0    3.1258
200      201.0   40.005     -7.9877   2.6657     0.0    3.1907
210      211.0   42.005     -7.8535   2.7999     0.0    3.2222
220      221.0   44.005     -7.7205   2.9329     0.0    3.2331
230      231.0   46.005     -7.5874   3.0660     0.0    3.2423
240      241.0   48.005     -7.4539   3.1995     0.0    3.2530
250      251.0   50.005     -7.3205   3.3328     0.0    3.2548
260      261.0   52.005     -7.1874   3.4659     0.0    3.2644
270      271.0   54.005     -7.0538   3.5996     0.0    3.2763
280      281.0   56.005     -6.9203   3.7331     0.0    3.2923
290      291.0   58.005     -6.7874   3.8659     0.0    3.3334
300      301.0   60.005     -6.6541   3.9993     0.0    3.3861
310      311.0   62.005     -6.5207   4.1327     0.0    3.4461
320      321.0   64.005     -6.3878   4.2656     0.0    3.4770
330      331.0   66.005     -6.2535   4.3999     0.0    3.5527
340      341.0   68.005     -6.1207   4.5327     0.0    3.5925
350      351.0   70.005     -5.9871   4.6663     0.0    3.6632
360      361.0   72.005     -5.8537   4.7996     0.0    3.7374
370      371.0   74.005     -5.7206   4.9327     0.0    3.8278
380      381.0   76.005     -5.5874   5.0660     0.0    3.9008
390      391.0   78.005     -5.4536   5.1998     0.0    3.9882
406      401.0   78.550     -5.4515   5.2019     0.0    3.9141
416      411.0   78.950     -5.4516   5.2018     0.0    3.9078
426      421.0   79.350     -5.4516   5.2018     0.0    3.8998
436      431.0   79.750     -5.4516   5.2017     0.0    3.8967
446      441.0   80.150     -5.4518   5.2015     0.0    3.8866
456      451.0   80.550     -5.4517   5.2017     0.0    3.8839
466      461.0   80.950     -5.4515   5.2019     0.0    3.8783
476      471.0   81.350     -5.4514   5.2020     0.0    3.8717
486      481.0   81.750     -5.4517   5.2017     0.0    3.8689
496      491.0   82.150     -5.4515   5.2019     0.0    3.8573
506      501.0   82.550     -5.4512   5.2021     0.0    3.8557
516      511.0   82.950     -5.4510   5.2024     0.0    3.8519
526      521.0   83.350     -5.4514   5.2020     0.0    3.8419
536      531.0   83.750     -5.4511   5.2022     0.0    3.8422
546      541.0   84.150     -5.4510   5.2024     0.0    3.8392
556      551.0   84.550     -5.4515   5.2019     0.0    3.8352
566      561.0   84.950     -5.4512   5.2022     0.0    3.8300
576      571.0   85.350     -5.4512   5.2021     0.0    3.8298
586      581.0   85.750     -5.4512   5.2022     0.0    3.8234
596      591.0   86.150     -5.4512   5.2022     0.0    3.8193
606      601.0   86.550     -5.4512   5.2022     0.0    3.8152
616      611.0   86.950     -5.4509   5.2025     0.0    3.8131
626      621.0   87.350     -5.4510   5.2023     0.0    3.8075
636      631.0   87.750     -5.4513   5.2021     0.0    3.8034
646      641.0   88.150     -5.4510   5.2023     0.0    3.8036
656      651.0   88.550     -5.4510   5.2024     0.0    3.8003
666      661.0   88.950     -5.4510   5.2024     0.0    3.7963
676      671.0   89.350     -5.4508   5.2025     0.0    3.7939
686      681.0   89.750     -5.4509   5.2024     0.0    3.7870
696      691.0   90.150     -5.4509   5.2024     0.0    3.7859
706      701.0   90.550     -5.4507   5.2027     0.0    3.7804
716      711.0   90.950     -5.4510   5.2024     0.0    3.7767
726      721.0   91.350     -5.4509   5.2025     0.0    3.7796
736      731.0   91.750     -5.4510   5.2024     0.0    3.7746
746      741.0   92.150     -5.4505   5.2028     0.0    3.7739
756      751.0   92.550     -5.4507   5.2027     0.0    3.7678
766      761.0   92.950     -5.4513   5.2021     0.0    3.7672
776      771.0   93.350     -5.4509   5.2025     0.0    3.7595
786      781.0   93.750     -5.4507   5.2026     0.0    3.7645
797      791.0   94.150     -5.4508   5.2025     0.0    3.7584
807      801.0   94.550     -5.4508   5.2026     0.0    3.7523
817      811.0   94.950     -5.4507   5.2026     0.0    3.7554
827      821.0   95.350     -5.4508   5.2026     0.0    3.7536
837      831.0   95.750     -5.4509   5.2025     0.0    3.7499
847      841.0   96.150     -5.4508   5.2026     0.0    3.7489
857      851.0   96.550     -5.4508   5.2025     0.0    3.7467
867      861.0   96.950     -5.4506   5.2028     0.0    3.7432
877      871.0   97.350     -5.4509   5.2025     0.0    3.7428
887      881.0   97.750     -5.4508   5.2026     0.0    3.7417
897      891.0   98.150     -5.4509   5.2025     0.0    3.7372
907      901.0   98.550     -5.4508   5.2026     0.0    3.7310
917      911.0   98.950     -5.4510   5.2024     0.0    3.7332
927      921.0   99.350     -5.4507   5.2027     0.0    3.7300
937      931.0   99.750     -5.4508   5.2025     0.0    3.7269
947      941.0  100.150     -5.4507   5.2027     0.0    3.7262
957      951.0  100.550     -5.4508   5.2026     0.0    3.7244
967      961.0  100.950     -5.4506   5.2028     0.0    3.7195
977      971.0  101.350     -5.4504   5.2030     0.0    3.7167
987      981.0  101.750     -5.4507   5.2027     0.0    3.7191
997      991.0  102.150     -5.4504   5.2030     0.0    3.7154
1007    1001.0  102.550     -5.4505   5.2029     0.0    3.7189
1017    1011.0  102.950     -5.4509   5.2025     0.0    3.7176
1027    1021.0  103.350     -5.4508   5.2026     0.0    3.7159
1037    1031.0  103.750     -5.4505   5.2029     0.0    3.7125
1047    1041.0  104.150     -5.4506   5.2028     0.0    3.7096
1057    1051.0  104.550     -5.4505   5.2029     0.0    3.7133
1067    1061.0  104.950     -5.4505   5.2028     0.0    3.7062
1077    1071.0  105.350     -5.4505   5.2029     0.0    3.7025
1087    1081.0  105.750     -5.4508   5.2026     0.0    3.6964
1097    1091.0  106.150     -5.4505   5.2029     0.0    3.6984
1107    1101.0  106.550     -5.4503   5.2030     0.0    3.6954
1117    1111.0  106.950     -5.4505   5.2029     0.0    3.6913
1127    1121.0  107.350     -5.4509   5.2024     0.0    3.6963
1137    1131.0  107.750     -5.4505   5.2029     0.0    3.6902
1147    1141.0  108.150     -5.4506   5.2028     0.0    3.6925
1157    1151.0  108.550     -5.4505   5.2029     0.0    3.6865
1167    1161.0  108.950     -5.4506   5.2028     0.0    3.6827
1177    1171.0  109.350     -5.4506   5.2028     0.0    3.6819
1187    1181.0  109.750     -5.4505   5.2029     0.0    3.6840
1197    1191.0  110.150     -5.4505   5.2028     0.0    3.6784
1207    1201.0  110.550     -5.4503   5.2031     0.0    3.6756
1217    1211.0  110.950     -5.4505   5.2028     0.0    3.6739
1227    1221.0  111.350     -5.4509   5.2025     0.0    3.6742
1237    1231.0  111.750     -5.4506   5.2028     0.0    3.6735
1247    1241.0  112.150     -5.4506   5.2028     0.0    3.6724
1257    1251.0  112.550     -5.4508   5.2026     0.0    3.6706
1267    1261.0  112.950     -5.4507   5.2027     0.0    3.6712
1277    1271.0  113.350     -5.4506   5.2027     0.0    3.6633
1287    1281.0  113.750     -5.4504   5.2030     0.0    3.6648
1297    1291.0  114.150     -5.4505   5.2029     0.0    3.6624
1307    1301.0  114.550     -5.4504   5.2030     0.0    3.6617
1317    1311.0  114.950     -5.4505   5.2029     0.0    3.6570
1327    1321.0  115.350     -5.4508   5.2026     0.0    3.6595
1337    1331.0  115.750     -5.4503   5.2031     0.0    3.6564
1347    1341.0  116.150     -5.4505   5.2029     0.0    3.6511
1357    1351.0  116.550     -5.4507   5.2027     0.0    3.6530
1367    1361.0  116.950     -5.4505   5.2029     0.0    3.6505
1377    1371.0  117.350     -5.4505   5.2029     0.0    3.6478
1387    1381.0  117.750     -5.4505   5.2029     0.0    3.6504
1397    1391.0  118.150     -5.4503   5.2030     0.0    3.6488
1407    1401.0  118.550     -5.4509   5.2025     0.0    3.6486
1417    1411.0  118.950     -5.4506   5.2028     0.0    3.6464
1427    1421.0  119.350     -5.4507   5.2027     0.0    3.6469
1437    1431.0  119.750     -5.4506   5.2028     0.0    3.6469
1447    1441.0  120.150     -5.4505   5.2029     0.0    3.6446
1457    1451.0  120.550     -5.4504   5.2030     0.0    3.6437
1467    1461.0  120.950     -5.4506   5.2027     0.0    3.6407
1477    1471.0  121.350     -5.4506   5.2028     0.0    3.6415
1487    1481.0  121.750     -5.4507   5.2027     0.0    3.6353
1497    1491.0  122.150     -5.4506   5.2028     0.0    3.6357
1507    1501.0  122.550     -5.4506   5.2028     0.0    3.6382
1517    1511.0  122.950     -5.4504   5.2030     0.0    3.6331
1527    1521.0  123.350     -5.4507   5.2027     0.0    3.6311
1537    1531.0  123.750     -5.4506   5.2028     0.0    3.6277
1547    1541.0  124.150     -5.4505   5.2029     0.0    3.6341
1557    1551.0  124.550     -5.4504   5.2029     0.0    3.6306
1567    1561.0  124.950     -5.4504   5.2029     0.0    3.6299
1577    1571.0  125.350     -5.4506   5.2027     0.0    3.6274
1587    1581.0  125.750     -5.4507   5.2027     0.0    3.6263
1597    1591.0  126.150     -5.4506   5.2027     0.0    3.6239
1607    1601.0  126.550     -5.4504   5.2030     0.0    3.6286
1617    1611.0  126.950     -5.4509   5.2025     0.0    3.6249
1627    1621.0  127.350     -5.4505   5.2029     0.0    3.6223
1637    1631.0  127.750     -5.4504   5.2030     0.0    3.6222
1647    1641.0  128.150     -5.4508   5.2026     0.0    3.6181
1657    1651.0  128.550     -5.4505   5.2029     0.0    3.6198
1667    1661.0  128.950     -5.4506   5.2028     0.0    3.6196
1677    1671.0  129.350     -5.4506   5.2028     0.0    3.6203
1687    1681.0  129.750     -5.4506   5.2028     0.0    3.6164
1697    1691.0  130.150     -5.4505   5.2029     0.0    3.6134
1707    1701.0  130.550     -5.4503   5.2031     0.0    3.6130
1717    1711.0  130.950     -5.4506   5.2028     0.0    3.6088
1727    1721.0  131.350     -5.4507   5.2027     0.0    3.6087
1737    1731.0  131.750     -5.4504   5.2029     0.0    3.6083
1747    1741.0  132.150     -5.4508   5.2025     0.0    3.6047
1757    1751.0  132.550     -5.4505   5.2028     0.0    3.6052
1767    1761.0  132.950     -5.4505   5.2029     0.0    3.6064
1777    1771.0  133.350     -5.4501   5.2033     0.0    3.6035
1787    1781.0  133.750     -5.4506   5.2027     0.0    3.6008
1797    1791.0  134.150     -5.4505   5.2028     0.0    3.6060
1807    1801.0  134.550     -5.4507   5.2027     0.0    3.5987
1817    1811.0  134.950     -5.4506   5.2028     0.0    3.5964
1827    1821.0  135.350     -5.4505   5.2029     0.0    3.5975
1837    1831.0  135.750     -5.4507   5.2027     0.0    3.5978
1847    1841.0  136.150     -5.4505   5.2029     0.0    3.5980
1857    1851.0  136.550     -5.4507   5.2027     0.0    3.5960
1867    1861.0  136.950     -5.4506   5.2028     0.0    3.5960
1877    1871.0  137.350     -5.4506   5.2028     0.0    3.5926
1887    1881.0  137.750     -5.4507   5.2026     0.0    3.5918
1897    1891.0  138.150     -5.4505   5.2029     0.0    3.5966
1907    1901.0  138.550     -5.4506   5.2028     0.0    3.5934
1917    1911.0  138.950     -5.4506   5.2027     0.0    3.5898
1927    1921.0  139.350     -5.4508   5.2026     0.0    3.5913
1937    1931.0  139.750     -5.4507   5.2027     0.0    3.5900
1947    1941.0  140.150     -5.4507   5.2027     0.0    3.5894
1957    1951.0  140.550     -5.4506   5.2028     0.0    3.5845
1967    1961.0  140.950     -5.4507   5.2027     0.0    3.5870
1977    1971.0  141.350     -5.4505   5.2028     0.0    3.5875
1987    1981.0  141.750     -5.4507   5.2027     0.0    3.5842
1997    1991.0  142.150     -5.4506   5.2028     0.0    3.5823
2007    2001.0  142.550     -5.4507   5.2027     0.0    3.5862
2017    2011.0  142.950     -5.4508   5.2025     0.0    3.5822
2027    2021.0  143.350     -5.4504   5.2029     0.0    3.5816
2037    2031.0  143.750     -5.4505   5.2028     0.0    3.5777
2047    2041.0  144.150     -5.4506   5.2027     0.0    3.5786
2057    2051.0  144.550     -5.4507   5.2027     0.0    3.5801
2067    2061.0  144.950     -5.4506   5.2027     0.0    3.5781
2077    2071.0  145.350     -5.4505   5.2029     0.0    3.5757
2087    2081.0  145.750     -5.4504   5.2029     0.0    3.5765
2097    2091.0  146.150     -5.4507   5.2026     0.0    3.5729
2107    2101.0  146.550     -5.4505   5.2029     0.0    3.5736
2117    2111.0  146.950     -5.4504   5.2030     0.0    3.5748
2127    2121.0  147.350     -5.4508   5.2026     0.0    3.5713
2137    2131.0  147.750     -5.4504   5.2029     0.0    3.5722
2147    2141.0  148.150     -5.4508   5.2026     0.0    3.5704
2157    2151.0  148.550     -5.4502   5.2032     0.0    3.5667
2167    2161.0  148.950     -5.4503   5.2031     0.0    3.5657
2177    2171.0  149.350     -5.4507   5.2027     0.0    3.5652
2187    2181.0  149.750     -5.4505   5.2028     0.0    3.5627
2197    2191.0  150.150     -5.4504   5.2030     0.0    3.5609
2207    2201.0  150.550     -5.4504   5.2030     0.0    3.5643
2217    2211.0  150.950     -5.4505   5.2028     0.0    3.5652
2227    2221.0  151.350     -5.4508   5.2026     0.0    3.5638
2237    2231.0  151.750     -5.4504   5.2030     0.0    3.5617
2247    2241.0  152.150     -5.4504   5.2030     0.0    3.5615
2257    2251.0  152.550     -5.4507   5.2027     0.0    3.5575
2267    2261.0  152.950     -5.4506   5.2028     0.0    3.5602
2277    2271.0  153.350     -5.4507   5.2027     0.0    3.5586
2287    2281.0  153.750     -5.4504   5.2030     0.0    3.5537
2297    2291.0  154.150     -5.4509   5.2025     0.0    3.5590
2307    2301.0  154.550     -5.4507   5.2027     0.0    3.5522
2317    2311.0  154.950     -5.4506   5.2027     0.0    3.5549
2327    2321.0  155.350     -5.4506   5.2028     0.0    3.5525
2337    2331.0  155.750     -5.4504   5.2030     0.0    3.5555
2347    2341.0  156.150     -5.4505   5.2028     0.0    3.5550
2357    2351.0  156.550     -5.4504   5.2030     0.0    3.5549
2367    2361.0  156.950     -5.4507   5.2027     0.0    3.5499
2377    2371.0  157.350     -5.4504   5.2029     0.0    3.5489
2387    2381.0  157.750     -5.4508   5.2026     0.0    3.5446
2397    2391.0  158.150     -5.4505   5.2029     0.0    3.5475
2407    2401.0  158.550     -5.4504   5.2030     0.0    3.5553
2417    2411.0  158.950     -5.4507   5.2027     0.0    3.5499
2427    2421.0  159.350     -5.4505   5.2029     0.0    3.5480
2437    2431.0  159.750     -5.4506   5.2028     0.0    3.5494
2447    2441.0  160.150     -5.4505   5.2029     0.0    3.5481
2457    2451.0  160.550     -5.4506   5.2027     0.0    3.5475
2467    2461.0  160.950     -5.4506   5.2028     0.0    3.5439
2477    2471.0  161.350     -5.4503   5.2030     0.0    3.5467
2487    2481.0  161.750     -5.4504   5.2030     0.0    3.5470
2497    2491.0  162.150     -5.4506   5.2028     0.0    3.5488
2507    2501.0  162.550     -5.4503   5.2031     0.0    3.5482
2517    2511.0  162.950     -5.4504   5.2029     0.0    3.5479
2527    2521.0  163.350     -5.4503   5.2031     0.0    3.5459
2537    2531.0  163.750     -5.4503   5.2031     0.0    3.5454
2547    2541.0  164.150     -5.4503   5.2031     0.0    3.5417
2557    2551.0  164.550     -5.4503   5.2030     0.0    3.5438
2567    2561.0  164.950     -5.4502   5.2031     0.0    3.5442
2577    2571.0  165.350     -5.4502   5.2032     0.0    3.5384
2587    2581.0  165.750     -5.4503   5.2031     0.0    3.5404
2597    2591.0  166.150     -5.4502   5.2031     0.0    3.5393
2607    2601.0  166.550     -5.4505   5.2029     0.0    3.5377
2624    2611.0  167.045     -5.4374   5.2160     0.0    3.6502
2634    2621.0  167.445     -5.4106   5.2428     0.0    3.8569
2644    2631.0  167.845     -5.3839   5.2695     0.0    3.9942
2654    2641.0  168.245     -5.3572   5.2962     0.0    4.0802
2664    2651.0  168.645     -5.3309   5.3225     0.0    4.1797
2674    2661.0  169.045     -5.3042   5.3492     0.0    4.2901
2684    2671.0  169.445     -5.2773   5.3761     0.0    4.4048
2694    2681.0  169.845     -5.2509   5.4025     0.0    4.5213
2704    2691.0  170.245     -5.2238   5.4296     0.0    4.6337
2714    2701.0  170.645     -5.1976   5.4558     0.0    4.7368
2724    2711.0  171.045     -5.1708   5.4825     0.0    4.8230
2734    2721.0  171.445     -5.1443   5.5091     0.0    4.9088
2744    2731.0  171.845     -5.1176   5.5357     0.0    4.9980
2754    2741.0  172.245     -5.0909   5.5625     0.0    5.0824
2764    2751.0  172.645     -5.0645   5.5889     0.0    5.1658
2774    2761.0  173.045     -5.0375   5.6159     0.0    5.2533
2784    2771.0  173.445     -5.0110   5.6424     0.0    5.3267
2794    2781.0  173.845     -4.9842   5.6692     0.0    5.3921
2804    2791.0  174.245     -4.9577   5.6957     0.0    5.4597
2814    2801.0  174.645     -4.9311   5.7223     0.0    5.5194
2824    2811.0  175.045     -4.9040   5.7494     0.0    5.5877
2834    2821.0  175.445     -4.8776   5.7758     0.0    5.6588
2844    2831.0  175.845     -4.8507   5.8027     0.0    5.7367
2854    2841.0  176.245     -4.8242   5.8292     0.0    5.8092
2864    2851.0  176.645     -4.7975   5.8559     0.0    5.8761
2874    2861.0  177.045     -4.7708   5.8826     0.0    5.9382
2884    2871.0  177.445     -4.7444   5.9090     0.0    5.9979
2894    2881.0  177.845     -4.7174   5.9360     0.0    6.0648
2904    2891.0  178.245     -4.6908   5.9626     0.0    6.1333
2914    2901.0  178.645     -4.6642   5.9892     0.0    6.2027
2924    2911.0  179.045     -4.6378   6.0156     0.0    6.2734
2934    2921.0  179.445     -4.6110   6.0423     0.0    6.3420
2944    2931.0  179.845     -4.5842   6.0692     0.0    6.4339
2954    2941.0  180.245     -4.5577   6.0957     0.0    6.5297
2964    2951.0  180.645     -4.5308   6.1226     0.0    6.6250
2974    2961.0  181.045     -4.5041   6.1493     0.0    6.7193
2984    2971.0  181.445     -4.4775   6.1758     0.0    6.8181
2994    2981.0  181.845     -4.4509   6.2025     0.0    6.9218
3004    2991.0  182.245     -4.4241   6.2292     0.0    7.0151
3014    3001.0  182.645     -4.3976   6.2558     0.0    7.1072
3024    3011.0  183.045     -4.3710   6.2824     0.0    7.1998
3034    3021.0  183.445     -4.3444   6.3090     0.0    7.2995
3044    3031.0  183.845     -4.3177   6.3357     0.0    7.4064
3054    3041.0  184.245     -4.2908   6.3626     0.0    7.5504
3064    3051.0  184.645     -4.2647   6.3887     0.0    7.7049
3074    3061.0  185.045     -4.2375   6.4158     0.0    7.8610
3084    3071.0  185.444     -4.2109   6.4424     0.0    8.0055
3100    3081.0  185.855     -4.2167   6.4366     0.0    7.8435
3110    3091.0  186.255     -4.2169   6.4365     0.0    7.7932
3120    3101.0  186.655     -4.2167   6.4367     0.0    7.7588
3130    3111.0  187.055     -4.2165   6.4368     0.0    7.7249
3140    3121.0  187.455     -4.2168   6.4365     0.0    7.6919
3150    3131.0  187.855     -4.2164   6.4370     0.0    7.6674
3160    3141.0  188.255     -4.2167   6.4366     0.0    7.6452
3170    3151.0  188.655     -4.2165   6.4369     0.0    7.6231
