           Num  Time(s)  PosAbs(mm)  Pos(mm)  Pos(%)  Load(kN)
0          1.0    0.005    -16.1229  -0.0005     0.0    0.0779
10        11.0    2.005    -15.9898   0.1326     0.0    0.2251
20        21.0    4.005    -15.8567   0.2657     0.0    0.3416
30        31.0    6.005    -15.7228   0.3996     0.0    0.4730
40        41.0    8.005    -15.5898   0.5326     0.0    0.6115
50        51.0   10.005    -15.4560   0.6664     0.0    0.7644
60        61.0   12.005    -15.3231   0.7993     0.0    0.9157
70        71.0   14.005    -15.1893   0.9331     0.0    1.0756
80        81.0   16.005    -15.0564   1.0660     0.0    1.2282
90        91.0   18.005    -14.9226   1.1998     0.0    1.3864
100      101.0   20.005    -14.7890   1.3334     0.0    1.5565
110      111.0   22.005    -14.6560   1.4663     0.0    1.7100
120      121.0   24.005    -14.5230   1.5994     0.0    1.8731
130      131.0   26.005    -14.3899   1.7325     0.0    2.0236
140      141.0   28.005    -14.2569   1.8655     0.0    2.1860
150      151.0   30.005    -14.1229   1.9995     0.0    2.3416
160      161.0   32.005    -13.9898   2.1326     0.0    2.4706
170      171.0   34.005    -13.8563   2.2660     0.0    2.5420
180      181.0   36.005    -13.7240   2.3984     0.0    2.6673
190      191.0   38.005    -13.5899   2.5325     0.0    2.7077
200      201.0   40.005    -13.4564   2.6659     0.0    2.7500
210      211.0   42.005    -13.3234   2.7990     0.0    2.7757
220      221.0   44.005    -13.1898   2.9326     0.0    2.7959
230      231.0   46.005    -13.0566   3.0658     0.0    2.8289
240      241.0   48.005    -12.9234   3.1989     0.0    2.8739
250      251.0   50.005    -12.7896   3.3328     0.0    2.9660
260      261.0   52.005    -12.6566   3.4658     0.0    3.1349
270      271.0   54.005    -12.5234   3.5989     0.0    3.1518
280      281.0   56.005    -12.3897   3.7327     0.0    3.1696
290      291.0   58.005    -12.2567   3.8657     0.0    3.1939
300      301.0   60.005    -12.1229   3.9995     0.0    3.2095
310      311.0   62.005    -11.9901   4.1322     0.0    3.2132
320      321.0   64.005    -11.8574   4.2649     0.0    3.2263
330      331.0   66.005    -11.7227   4.3997     0.0    3.2341
340      341.0   68.005    -11.5900   4.5324     0.0    3.2514
350      351.0   70.005    -11.4565   4.6659     0.0    3.2794
360      361.0   72.005    -11.3232   4.7992     0.0    3.3005
370      371.0   74.005    -11.1898   4.9326     0.0    3.3161
380      381.0   76.005    -11.0565   5.0659     0.0    3.3349
390      391.0   78.005    -10.9229   5.1995     0.0    3.4283
400      401.0   80.005    -10.7898   5.3325     0.0    3.5801
410      411.0   82.005    -10.6565   5.4658     0.0    3.7372
420      421.0   84.005    -10.5236   5.5988     0.0    3.8737
430      431.0   86.005    -10.3893   5.7331     0.0    3.9939
446      441.0   86.535    -10.3931   5.7292     0.0    3.8864
456      451.0   86.935    -10.3929   5.7295     0.0    3.8544
466      461.0   87.335    -10.3925   5.7298     0.0    3.8269
476      471.0   87.735    -10.3926   5.7297     0.0    3.8032
486      481.0   88.135    -10.3926   5.7298     0.0    3.7815
496      491.0   88.535    -10.3929   5.7295     0.0    3.7610
506      501.0   88.935    -10.3930   5.7294     0.0    3.7474
516      511.0   89.335    -10.3928   5.7295     0.0    3.7351
526      521.0   89.735    -10.3924   5.7300     0.0    3.7180
536      531.0   90.135    -10.3926   5.7298     0.0    3.7081
546      541.0   90.535    -10.3927   5.7296     0.0    3.6940
556      551.0   90.935    -10.3921   5.7303     0.0    3.6853
566      561.0   91.335    -10.3927   5.7296     0.0    3.6712
576      571.0   91.735    -10.3926   5.7298     0.0    3.6629
587      581.0   92.135    -10.3930   5.7293     0.0    3.6522
597      591.0   92.535    -10.3923   5.7301     0.0    3.6451
607      601.0   92.935    -10.3929   5.7295     0.0    3.6343
617      611.0   93.335    -10.3927   5.7297     0.0    3.6229
627      621.0   93.735    -10.3927   5.7296     0.0    3.6165
637      631.0   94.135    -10.3925   5.7299     0.0    3.6041
647      641.0   94.535    -10.3923   5.7301     0.0    3.6018
657      651.0   94.935    -10.3920   5.7303     0.0    3.5955
667      661.0   95.335    -10.3927   5.7296     0.0    3.5913
677      671.0   95.735    -10.3928   5.7295     0.0    3.5896
687      681.0   96.135    -10.3928   5.7296     0.0    3.5860
697      691.0   96.535    -10.3924   5.7300     0.0    3.5771
707      701.0   96.935    -10.3927   5.7296     0.0    3.5684
717      711.0   97.335    -10.3926   5.7298     0.0    3.5594
727      721.0   97.735    -10.3923   5.7300     0.0    3.5556
737      731.0   98.135    -10.3930   5.7294     0.0    3.5593
747      741.0   98.535    -10.3925   5.7299     0.0    3.5552
757      751.0   98.935    -10.3927   5.7296     0.0    3.5471
767      761.0   99.335    -10.3923   5.7301     0.0    3.5390
777      771.0   99.735    -10.3924   5.7300     0.0    3.5328
787      781.0  100.135    -10.3926   5.7298     0.0    3.5305
797      791.0  100.535    -10.3922   5.7302     0.0    3.5245
807      801.0  100.935    -10.3922   5.7302     0.0    3.5272
817      811.0  101.335    -10.3922   5.7302     0.0    3.5205
827      821.0  101.735    -10.3921   5.7303     0.0    3.5074
837      831.0  102.135    -10.3928   5.7296     0.0    3.5013
847      841.0  102.535    -10.3929   5.7295     0.0    3.4931
857      851.0  102.935    -10.3922   5.7301     0.0    3.4897
867      861.0  103.335    -10.3925   5.7299     0.0    3.4943
877      871.0  103.735    -10.3928   5.7296     0.0    3.4826
887      881.0  104.135    -10.3928   5.7296     0.0    3.4872
897      891.0  104.535    -10.3926   5.7297     0.0    3.4811
907      901.0  104.935    -10.3926   5.7298     0.0    3.4759
917      911.0  105.335    -10.3921   5.7303     0.0    3.4747
927      921.0  105.735    -10.3924   5.7300     0.0    3.4813
937      931.0  106.135    -10.3926   5.7298     0.0    3.4319
947      941.0  106.535    -10.3924   5.7299     0.0    3.4214
957      951.0  106.935    -10.3927   5.7297     0.0    3.4182
967      961.0  107.335    -10.3922   5.7302     0.0    3.4045
977      971.0  107.735    -10.3927   5.7297     0.0    3.3711
987      981.0  108.135    -10.3927   5.7297     0.0    3.3883
997      991.0  108.535    -10.3927   5.7296     0.0    3.3948
1007    1001.0  108.935    -10.3919   5.7305     0.0    3.3791
1017    1011.0  109.335    -10.3922   5.7302     0.0    3.3481
1027    1021.0  109.735    -10.3930   5.7294     0.0    3.3471
1037    1031.0  110.135    -10.3925   5.7298     0.0    3.3785
1047    1041.0  110.535    -10.3929   5.7295     0.0    3.3562
1057    1051.0  110.935    -10.3924   5.7300     0.0    3.3466
1067    1061.0  111.335    -10.3928   5.7295     0.0    3.3558
1077    1071.0  111.735    -10.3929   5.7294     0.0    3.3641
1087    1081.0  112.135    -10.3924   5.7299     0.0    3.3201
1097    1091.0  112.535    -10.3925   5.7298     0.0    3.3173
1107    1101.0  112.935    -10.3927   5.7297     0.0    3.3357
1117    1111.0  113.335    -10.3927   5.7297     0.0    3.3175
1127    1121.0  113.735    -10.3927   5.7297     0.0    3.3007
1137    1131.0  114.135    -10.3928   5.7296     0.0    3.3090
1147    1141.0  114.535    -10.3928   5.7296     0.0    3.3019
1157    1151.0  114.935    -10.3928   5.7296     0.0    3.3160
1167    1161.0  115.335    -10.3929   5.7295     0.0    3.3046
1177    1171.0  115.735    -10.3922   5.7302     0.0    3.3260
1187    1181.0  116.135    -10.3925   5.7299     0.0    3.3419
1197    1191.0  116.535    -10.3930   5.7294     0.0    3.3327
1207    1201.0  116.935    -10.3924   5.7300     0.0    3.3273
1217    1211.0  117.335    -10.3923   5.7300     0.0    3.3227
1227    1221.0  117.735    -10.3927   5.7296     0.0    3.3328
1237    1231.0  118.135    -10.3930   5.7294     0.0    3.3268
1247    1241.0  118.535    -10.3925   5.7298     0.0    3.3394
1257    1251.0  118.935    -10.3929   5.7295     0.0    3.3130
1267    1261.0  119.335    -10.3922   5.7302     0.0    3.2822
1277    1271.0  119.735    -10.3922   5.7301     0.0    3.2951
1287    1281.0  120.135    -10.3928   5.7295     0.0    3.2954
1297    1291.0  120.535    -10.3932   5.7291     0.0    3.2862
1307    1301.0  120.935    -10.3929   5.7295     0.0    3.2872
1317    1311.0  121.335    -10.3927   5.7296     0.0    3.2754
1327    1321.0  121.735    -10.3929   5.7295     0.0    3.2757
1337    1331.0  122.135    -10.3926   5.7297     0.0    3.2813
1347    1341.0  122.535    -10.3922   5.7301     0.0    3.2847
1357    1351.0  122.935    -10.3927   5.7297     0.0    3.2792
1367    1361.0  123.335    -10.3930   5.7293     0.0    3.2682
1377    1371.0  123.735    -10.3924   5.7300     0.0    3.2805
1387    1381.0  124.135    -10.3920   5.7304     0.0    3.2746
1397    1391.0  124.535    -10.3928   5.7295     0.0    3.2759
1407    1401.0  124.935    -10.3922   5.7302     0.0    3.2712
1417    1411.0  125.335    -10.3925   5.7298     0.0    3.2657
1427    1421.0  125.735    -10.3926   5.7297     0.0    3.2698
1437    1431.0  126.135    -10.3930   5.7293     0.0    3.2631
1447    1441.0  126.535    -10.3925   5.7299     0.0    3.2595
1457    1451.0  126.935    -10.3924   5.7300     0.0    3.2661
1467    1461.0  127.335    -10.3926   5.7298     0.0    3.2644
1477    1471.0  127.735    -10.3927   5.7297     0.0    3.2594
1487    1481.0  128.135    -10.3923   5.7301     0.0    3.2625
1497    1491.0  128.535    -10.3926   5.7298     0.0    3.2607
1514    1501.0  129.000    -10.3851   5.7373     0.0    3.3031
1524    1511.0  129.400    -10.3580   5.7644     0.0    3.4587
1534    1521.0  129.800    -10.3324   5.7900     0.0    3.5936
1544    1531.0  130.200    -10.3050   5.8174     0.0    3.7132
1554    1541.0  130.600    -10.2783   5.8441     0.0    3.8253
1564    1551.0  131.000    -10.2523   5.8701     0.0    3.9103
1574    1561.0  131.400    -10.2254   5.8969     0.0    3.9943
1584    1571.0  131.800    -10.1987   5.9237     0.0    4.0684
1594    1581.0  132.200    -10.1724   5.9499     0.0    4.0989
1604    1591.0  132.600    -10.1463   5.9761     0.0    4.1031
1614    1601.0  133.000    -10.1186   6.0037     0.0    4.1339
1624    1611.0  133.400    -10.0914   6.0309     0.0    4.1819
1634    1621.0  133.800    -10.0655   6.0569     0.0    4.2225
1644    1631.0  134.200    -10.0390   6.0834     0.0    4.2799
1654    1641.0  134.600    -10.0125   6.1098     0.0    4.3377
1664    1651.0  135.000     -9.9853   6.1371     0.0    4.3995
1674    1661.0  135.400     -9.9590   6.1634     0.0    4.4570
1684    1671.0  135.800     -9.9317   6.1907     0.0    4.5124
1694    1681.0  136.200     -9.9055   6.2169     0.0    4.5650
1704    1691.0  136.600     -9.8792   6.2432     0.0    4.6160
1714    1701.0  137.000     -9.8521   6.2703     0.0    4.6584
1724    1711.0  137.400     -9.8257   6.2966     0.0    4.7014
1734    1721.0  137.800     -9.7987   6.3237     0.0    4.7500
1744    1731.0  138.200     -9.7721   6.3502     0.0    4.7873
1754    1741.0  138.600     -9.7448   6.3775     0.0    4.8300
1764    1751.0  139.000     -9.7186   6.4038     0.0    4.8691
1774    1761.0  139.400     -9.6919   6.4305     0.0    4.9106
1784    1771.0  139.800     -9.6657   6.4566     0.0    4.9489
1794    1781.0  140.200     -9.6387   6.4837     0.0    4.9850
1804    1791.0  140.600     -9.6121   6.5102     0.0    5.0227
1814    1801.0  141.000     -9.5859   6.5365     0.0    5.0514
1824    1811.0  141.400     -9.5589   6.5635     0.0    5.0872
1834    1821.0  141.800     -9.5326   6.5897     0.0    5.1236
1844    1831.0  142.200     -9.5055   6.6168     0.0    5.1636
1854    1841.0  142.600     -9.4788   6.6436     0.0    5.1980
1864    1851.0  143.000     -9.4523   6.6701     0.0    5.2325
1874    1861.0  143.400     -9.4250   6.6974     0.0    5.2687
1884    1871.0  143.800     -9.3989   6.7235     0.0    5.3033
1894    1881.0  144.200     -9.3722   6.7501     0.0    5.3439
1904    1891.0  144.600     -9.3457   6.7767     0.0    5.3809
1914    1901.0  145.000     -9.3196   6.8028     0.0    5.4209
1924    1911.0  145.400     -9.2923   6.8300     0.0    5.4588
1934    1921.0  145.800     -9.2660   6.8563     0.0    5.5014
1944    1931.0  146.200     -9.2389   6.8834     0.0    5.5384
1954    1941.0  146.600     -9.2126   6.9098     0.0    5.5711
1964    1951.0  147.000     -9.1857   6.9366     0.0    5.6081
1974    1961.0  147.400     -9.1591   6.9632     0.0    5.6422
1984    1971.0  147.800     -9.1325   6.9898     0.0    5.6760
1994    1981.0  148.200     -9.1057   7.0167     0.0    5.7065
2004    1991.0  148.600     -9.0794   7.0430     0.0    5.7473
2014    2001.0  149.000     -9.0526   7.0698     0.0    5.7846
2024    2011.0  149.400     -9.0261   7.0962     0.0    5.8158
2034    2021.0  149.800     -8.9990   7.1234     0.0    5.8496
2044    2031.0  150.200     -8.9723   7.1501     0.0    5.8915
2054    2041.0  150.600     -8.9460   7.1764     0.0    5.9246
2064    2051.0  151.000     -8.9183   7.2041     0.0    5.9698
2074    2061.0  151.400     -8.8926   7.2298     0.0    6.0080
2084    2071.0  151.800     -8.8658   7.2566     0.0    6.0515
2094    2081.0  152.200     -8.8393   7.2830     0.0    6.0929
2104    2091.0  152.600     -8.8126   7.3098     0.0    6.1311
2114    2101.0  153.000     -8.7860   7.3364     0.0    6.1703
2124    2111.0  153.400     -8.7591   7.3632     0.0    6.2124
2134    2121.0  153.800     -8.7326   7.3898     0.0    6.2487
2144    2131.0  154.200     -8.7056   7.4168     0.0    6.2855
2154    2141.0  154.600     -8.6789   7.4435     0.0    6.3211
2164    2151.0  155.000     -8.6526   7.4697     0.0    6.3427
2174    2161.0  155.400     -8.6255   7.4968     0.0    6.3884
2184    2171.0  155.800     -8.5992   7.5232     0.0    6.4264
2194    2181.0  156.200     -8.5724   7.5500     0.0    6.4586
2204    2191.0  156.600     -8.5457   7.5767     0.0    6.5041
2214    2201.0  157.000     -8.5191   7.6032     0.0    6.5452
2224    2211.0  157.400     -8.4926   7.6298     0.0    6.5817
2234    2221.0  157.800     -8.4655   7.6568     0.0    6.6259
2244    2231.0  158.200     -8.4391   7.6833     0.0    6.6639
2254    2241.0  158.600     -8.4123   7.7100     0.0    6.7127
2264    2251.0  159.000     -8.3855   7.7369     0.0    6.7504
2274    2261.0  159.400     -8.3591   7.7632     0.0    6.7869
2284    2271.0  159.800     -8.3326   7.7898     0.0    6.8396
2294    2281.0  160.200     -8.3053   7.8170     0.0    6.8865
2304    2291.0  160.600     -8.2794   7.8429     0.0    6.9361
2314    2301.0  161.000     -8.2521   7.8703     0.0    6.9946
2324    2311.0  161.400     -8.2255   7.8968     0.0    7.0356
2334    2321.0  161.800     -8.1992   7.9231     0.0    7.0866
2344    2331.0  162.200     -8.1727   7.9496     0.0    7.1359
2354    2341.0  162.600     -8.1459   7.9764     0.0    7.1862
2364    2351.0  163.000     -8.1192   8.0031     0.0    7.2356
2374    2361.0  163.400     -8.0929   8.0295     0.0    7.2807
2384    2371.0  163.800     -8.0653   8.0571     0.0    7.3380
2394    2381.0  164.200     -8.0389   8.0834     0.0    7.3895
2404    2391.0  164.600     -8.0125   8.1098     0.0    7.4377
2414    2401.0  165.000     -7.9859   8.1364     0.0    7.4828
2424    2411.0  165.400     -7.9591   8.1633     0.0    7.5478
2434    2421.0  165.800     -7.9326   8.1897     0.0    7.5827
2444    2431.0  166.200     -7.9063   8.2160     0.0    7.6311
2454    2441.0  166.600     -7.8793   8.2431     0.0    7.6886
2464    2451.0  167.000     -7.8524   8.2700     0.0    7.7368
2474    2461.0  167.400     -7.8256   8.2967     0.0    7.7930
2484    2471.0  167.800     -7.7997   8.3227     0.0    7.8531
2494    2481.0  168.200     -7.7724   8.3499     0.0    7.9102
2504    2491.0  168.600     -7.7463   8.3761     0.0    7.9817
2520    2501.0  169.000     -7.7491   8.3733     0.0    7.7771
2530    2511.0  169.400     -7.7494   8.3729     0.0    7.6762
2540    2521.0  169.800     -7.7495   8.3728     0.0    7.5941
2550    2531.0  170.200     -7.7497   8.3726     0.0    7.5373
2560    2541.0  170.600     -7.7490   8.3733     0.0    7.4793
2570    2551.0  171.000     -7.7495   8.3729     0.0    7.4294
2580    2561.0  171.400     -7.7488   8.3736     0.0    7.3861
2590    2571.0  171.800     -7.7494   8.3730     0.0    7.3512
2600    2581.0  172.200     -7.7489   8.3734     0.0    7.3118
2610    2591.0  172.600     -7.7496   8.3728     0.0    7.2828
2620    2601.0  173.000     -7.7487   8.3736     0.0    7.2591
2630    2611.0  173.400     -7.7496   8.3728     0.0    7.2230
2640    2621.0  173.800     -7.7495   8.3728     0.0    7.1959
2650    2631.0  174.200     -7.7494   8.3729     0.0    7.1684
2660    2641.0  174.600     -7.7496   8.3728     0.0    7.1458
2670    2651.0  175.000     -7.7493   8.3731     0.0    7.1281
2680    2661.0  175.400     -7.7489   8.3734     0.0    7.1079
2690    2671.0  175.800     -7.7491   8.3732     0.0    7.0799
2700    2681.0  176.200     -7.7493   8.3730     0.0    7.0668
2710    2691.0  176.600     -7.7493   8.3731     0.0    7.0465
2720    2701.0  177.000     -7.7493   8.3730     0.0    7.0295
2730    2711.0  177.400     -7.7490   8.3734     0.0    7.0168
2740    2721.0  177.800     -7.7491   8.3733     0.0    7.0022
2750    2731.0  178.200     -7.7494   8.3729     0.0    6.9833
2760    2741.0  178.600     -7.7494   8.3729     0.0    6.9755
2770    2751.0  179.000     -7.7490   8.3734     0.0    6.9630
2780    2761.0  179.400     -7.7492   8.3731     0.0    6.9498
2790    2771.0  179.800     -7.7492   8.3731     0.0    6.9291
2800    2781.0  180.200     -7.7491   8.3733     0.0    6.9197
2810    2791.0  180.600     -7.7490   8.3734     0.0    6.9028
2820    2801.0  181.000     -7.7493   8.3731     0.0    6.8971
2830    2811.0  181.400     -7.7491   8.3733     0.0    6.8876
2840    2821.0  181.800     -7.7491   8.3733     0.0    6.8725
2851    2831.0  182.200     -7.7494   8.3730     0.0    6.8639
2861    2841.0  182.600     -7.7490   8.3733     0.0    6.8596
2871    2851.0  183.000     -7.7495   8.3728     0.0    6.8524
2881    2861.0  183.400     -7.7492   8.3732     0.0    6.8489
2891    2871.0  183.800     -7.7493   8.3730     0.0    6.8315
2901    2881.0  184.200     -7.7492   8.3732     0.0    6.8255
2911    2891.0  184.600     -7.7494   8.3730     0.0    6.8195
2921    2901.0  185.000     -7.7491   8.3733     0.0    6.8091
2931    2911.0  185.400     -7.7497   8.3726     0.0    6.7976
2941    2921.0  185.800     -7.7488   8.3735     0.0    6.7983
2951    2931.0  186.200     -7.7492   8.3732     0.0    6.7839
2961    2941.0  186.600     -7.7489   8.3735     0.0    6.7743
2971    2951.0  187.000     -7.7494   8.3730     0.0    6.7628
2981    2961.0  187.400     -7.7493   8.3730     0.0    6.7579
2991    2971.0  187.800     -7.7490   8.3733     0.0    6.7507
3001    2981.0  188.200     -7.7492   8.3732     0.0    6.7444
3011    2991.0  188.600     -7.7492   8.3732     0.0    6.7347
3021    3001.0  189.000     -7.7497   8.3726     0.0    6.7342
3031    3011.0  189.400     -7.7491   8.3733     0.0    6.7233
3041    3021.0  189.800     -7.7495   8.3729     0.0    6.7046
3051    3031.0  190.200     -7.7490   8.3734     0.0    6.7007
3061    3041.0  190.600     -7.7493   8.3731     0.0    6.6962
3071    3051.0  191.000     -7.7493   8.3731     0.0    6.6863
3081    3061.0  191.400     -7.7492   8.3731     0.0    6.6847
3091    3071.0  191.800     -7.7491   8.3732     0.0    6.6806
3101    3081.0  192.200     -7.7492   8.3732     0.0    6.6735
3111    3091.0  192.600     -7.7492   8.3732     0.0    6.6735
3121    3101.0  193.000     -7.7493   8.3731     0.0    6.6730
3131    3111.0  193.400     -7.7493   8.3731     0.0    6.6658
3141    3121.0  193.800     -7.7492   8.3732     0.0    6.6551
3151    3131.0  194.200     -7.7490   8.3734     0.0    6.6473
3161    3141.0  194.600     -7.7495   8.3729     0.0    6.6509
3171    3151.0  195.000     -7.7494   8.3729     0.0    6.6287
