         Num  Time(s)  PosAbs(mm)  Pos(mm)  Pos(%)  Load(kN)
0        1.0    0.005    -11.8724  -0.0013     0.0    0.0965
10      11.0    2.005    -11.7390   0.1320     0.0    0.1091
20      21.0    4.005    -11.6051   0.2660     0.0    0.1235
30      31.0    6.005    -11.4719   0.3992     0.0    0.1457
40      41.0    8.005    -11.3383   0.5327     0.0    0.1687
50      51.0   10.005    -11.2047   0.6663     0.0    0.1942
60      61.0   12.005    -11.0719   0.7991     0.0    0.2192
70      71.0   14.005    -10.9393   0.9318     0.0    0.2495
80      81.0   16.005    -10.8048   1.0662     0.0    0.2885
90      91.0   18.005    -10.6718   1.1992     0.0    0.3273
100    101.0   20.005    -10.5381   1.3330     0.0    0.3725
110    111.0   22.005    -10.4051   1.4659     0.0    0.4280
120    121.0   24.005    -10.2721   1.5990     0.0    0.4864
130    131.0   26.005    -10.1383   1.7327     0.0    0.5542
140    141.0   28.005    -10.0049   1.8662     0.0    0.6302
150    151.0   30.005     -9.8719   1.9992     0.0    0.7199
160    161.0   32.005     -9.7383   2.1328     0.0    0.8144
170    171.0   34.005     -9.6050   2.2661     0.0    0.9267
180    181.0   36.005     -9.4713   2.3998     0.0    1.0509
190    191.0   38.005     -9.3384   2.5327     0.0    1.1891
200    201.0   40.005     -9.2049   2.6662     0.0    1.3515
210    211.0   42.005     -9.0715   2.7996     0.0    1.5292
220    221.0   44.005     -8.9381   2.9330     0.0    1.7271
230    231.0   46.005     -8.8049   3.0662     0.0    1.9396
240    241.0   48.005     -8.6716   3.1994     0.0    2.1671
250    251.0   50.005     -8.5382   3.3328     0.0    2.4154
260    261.0   52.005     -8.4051   3.4660     0.0    2.6818
270    271.0   54.005     -8.2716   3.5995     0.0    2.8146
280    281.0   56.005     -8.1386   3.7325     0.0    2.9709
290    291.0   58.005     -8.0051   3.8660     0.0    3.0171
300    301.0   60.005     -7.8714   3.9996     0.0    3.0479
310    311.0   62.005     -7.7382   4.1329     0.0    3.0972
320    321.0   64.005     -7.6050   4.2661     0.0    3.1283
330    331.0   66.005     -7.4714   4.3996     0.0    3.1782
340    341.0   68.005     -7.3384   4.5327     0.0    3.2838
350    351.0   70.005     -7.2048   4.6663     0.0    3.4478
360    361.0   72.005     -7.0714   4.7997     0.0    3.4670
370    371.0   74.005     -6.9382   4.9328     0.0    3.4963
380    381.0   76.005     -6.8048   5.0663     0.0    3.5250
390    391.0   78.005     -6.6715   5.1996     0.0    3.5430
400    401.0   80.005     -6.5382   5.3328     0.0    3.5537
410    411.0   82.005     -6.4050   5.4661     0.0    3.5723
420    421.0   84.005     -6.2717   5.5994     0.0    3.5873
430    431.0   86.005     -6.1380   5.7330     0.0    3.6212
440    441.0   88.005     -6.0048   5.8662     0.0    3.6524
450    451.0   90.005     -5.8718   5.9993     0.0    3.7636
460    461.0   92.005     -5.7381   6.1330     0.0    3.8129
470    471.0   94.005     -5.6047   6.2663     0.0    3.8804
486    481.0   95.385     -5.5356   6.3354     0.0    3.9018
496    491.0   95.785     -5.5355   6.3356     0.0    3.8899
506    501.0   96.185     -5.5357   6.3354     0.0    3.8803
516    511.0   96.585     -5.5359   6.3351     0.0    3.8734
526    521.0   96.985     -5.5359   6.3352     0.0    3.8641
536    531.0   97.385     -5.5359   6.3351     0.0    3.8551
546    541.0   97.785     -5.5358   6.3353     0.0    3.8536
556    551.0   98.185     -5.5358   6.3353     0.0    3.8417
566    561.0   98.585     -5.5356   6.3355     0.0    3.8406
576    571.0   98.985     -5.5356   6.3354     0.0    3.8330
586    581.0   99.385     -5.5353   6.3358     0.0    3.8296
596    591.0   99.785     -5.5355   6.3355     0.0    3.8198
606    601.0  100.185     -5.5357   6.3354     0.0    3.8135
616    611.0  100.585     -5.5356   6.3355     0.0    3.8096
626    621.0  100.985     -5.5358   6.3353     0.0    3.8057
636    631.0  101.385     -5.5356   6.3354     0.0    3.8006
646    641.0  101.785     -5.5355   6.3356     0.0    3.7936
656    651.0  102.185     -5.5356   6.3355     0.0    3.7941
666    661.0  102.585     -5.5357   6.3354     0.0    3.7910
676    671.0  102.985     -5.5356   6.3354     0.0    3.7667
686    681.0  103.385     -5.5354   6.3356     0.0    3.7728
696    691.0  103.785     -5.5358   6.3353     0.0    3.7721
706    701.0  104.185     -5.5355   6.3355     0.0    3.7626
716    711.0  104.585     -5.5354   6.3356     0.0    3.7627
726    721.0  104.985     -5.5354   6.3357     0.0    3.7662
736    731.0  105.385     -5.5355   6.3355     0.0    3.7604
746    741.0  105.785     -5.5355   6.3355     0.0    3.7540
756    751.0  106.185     -5.5355   6.3355     0.0    3.7597
767    761.0  106.585     -5.5349   6.3361     0.0    3.7257
777    771.0  106.985     -5.5354   6.3357     0.0    3.7080
787    781.0  107.385     -5.5352   6.3358     0.0    3.7095
797    791.0  107.785     -5.5356   6.3355     0.0    3.7074
807    801.0  108.185     -5.5352   6.3358     0.0    3.6965
817    811.0  108.585     -5.5355   6.3356     0.0    3.7019
827    821.0  108.985     -5.5353   6.3358     0.0    3.6997
837    831.0  109.385     -5.5354   6.3357     0.0    3.7419
847    841.0  109.785     -5.5354   6.3356     0.0    3.7086
857    851.0  110.185     -5.5351   6.3360     0.0    3.7135
867    861.0  110.585     -5.5354   6.3356     0.0    3.7068
877    871.0  110.985     -5.5353   6.3358     0.0    3.6792
887    881.0  111.385     -5.5353   6.3357     0.0    3.6890
897    891.0  111.785     -5.5351   6.3360     0.0    3.6630
907    901.0  112.185     -5.5359   6.3352     0.0    3.6658
917    911.0  112.585     -5.5353   6.3357     0.0    3.6646
927    921.0  112.985     -5.5354   6.3356     0.0    3.6627
937    931.0  113.385     -5.5356   6.3355     0.0    3.6732
947    941.0  113.785     -5.5355   6.3356     0.0    3.6737
957    951.0  114.185     -5.5353   6.3357     0.0    3.6373
967    961.0  114.585     -5.5354   6.3357     0.0    3.6150
977    971.0  114.985     -5.5353   6.3357     0.0    3.6195
987    981.0  115.385     -5.5355   6.3356     0.0    3.6202
997    991.0  115.785     -5.5352   6.3358     0.0    3.6094
1007  1001.0  116.185     -5.5352   6.3358     0.0    3.5905
1017  1011.0  116.585     -5.5355   6.3356     0.0    3.5773
1027  1021.0  116.985     -5.5353   6.3358     0.0    3.6206
1037  1031.0  117.385     -5.5351   6.3359     0.0    3.6208
1047  1041.0  117.785     -5.5355   6.3356     0.0    3.6101
1057  1051.0  118.185     -5.5356   6.3355     0.0    3.6062
1067  1061.0  118.585     -5.5352   6.3358     0.0    3.5932
1077  1071.0  118.985     -5.5354   6.3356     0.0    3.6016
1087  1081.0  119.385     -5.5358   6.3353     0.0    3.6004
1097  1091.0  119.785     -5.5352   6.3359     0.0    3.5903
1107  1101.0  120.185     -5.5353   6.3358     0.0    3.5977
1117  1111.0  120.585     -5.5354   6.3356     0.0    3.5812
1127  1121.0  120.985     -5.5354   6.3356     0.0    3.6032
1137  1131.0  121.385     -5.5359   6.3352     0.0    3.5946
1147  1141.0  121.785     -5.5354   6.3356     0.0    3.5688
1157  1151.0  122.185     -5.5355   6.3356     0.0    3.5623
1167  1161.0  122.585     -5.5355   6.3356     0.0    3.5562
1177  1171.0  122.985     -5.5352   6.3359     0.0    3.5593
1194  1181.0  123.460     -5.5338   6.3372     0.0    3.5646
1204  1191.0  123.860     -5.5069   6.3642     0.0    3.7775
1214  1201.0  124.260     -5.4798   6.3912     0.0    3.9337
1224  1211.0  124.660     -5.4536   6.4175     0.0    4.0533
1234  1221.0  125.060     -5.4264   6.4446     0.0    4.0847
1244  1231.0  125.460     -5.3999   6.4712     0.0    4.1112
1254  1241.0  125.860     -5.3737   6.4973     0.0    4.1689
1264  1251.0  126.260     -5.3468   6.5243     0.0    4.2150
1274  1261.0  126.660     -5.3202   6.5508     0.0    4.2283
1284  1271.0  127.060     -5.2936   6.5775     0.0    4.2765
1294  1281.0  127.460     -5.2666   6.6044     0.0    4.3273
1304  1291.0  127.860     -5.2401   6.6310     0.0    4.3869
1314  1301.0  128.260     -5.2134   6.6576     0.0    4.4716
1324  1311.0  128.660     -5.1869   6.6842     0.0    4.5979
1334  1321.0  129.060     -5.1602   6.7109     0.0    4.7043
1344  1331.0  129.460     -5.1335   6.7376     0.0    4.8251
1354  1341.0  129.860     -5.1069   6.7642     0.0    4.9419
1364  1351.0  130.260     -5.0803   6.7907     0.0    5.0535
1374  1361.0  130.660     -5.0538   6.8173     0.0    5.1580
1384  1371.0  131.060     -5.0267   6.8443     0.0    5.2611
1394  1381.0  131.460     -5.0002   6.8708     0.0    5.3525
1404  1391.0  131.860     -4.9735   6.8976     0.0    5.4458
1414  1401.0  132.260     -4.9470   6.9240     0.0    5.5281
1424  1411.0  132.660     -4.9201   6.9509     0.0    5.6094
1434  1421.0  133.060     -4.8940   6.9771     0.0    5.6976
1444  1431.0  133.460     -4.8672   7.0038     0.0    5.7836
1454  1441.0  133.860     -4.8406   7.0305     0.0    5.8686
1464  1451.0  134.260     -4.8136   7.0575     0.0    5.9516
1474  1461.0  134.660     -4.7872   7.0839     0.0    6.0295
1484  1471.0  135.060     -4.7605   7.1106     0.0    6.1013
1494  1481.0  135.460     -4.7339   7.1372     0.0    6.1612
1504  1491.0  135.860     -4.7072   7.1638     0.0    6.2131
1514  1501.0  136.260     -4.6806   7.1904     0.0    6.2829
1524  1511.0  136.660     -4.6539   7.2171     0.0    6.3682
1534  1521.0  137.060     -4.6274   7.2437     0.0    6.4533
1544  1531.0  137.460     -4.6006   7.2705     0.0    6.5388
1554  1541.0  137.860     -4.5741   7.2970     0.0    6.6199
1564  1551.0  138.260     -4.5473   7.3237     0.0    6.6908
1574  1561.0  138.660     -4.5206   7.3504     0.0    6.7600
1584  1571.0  139.060     -4.4941   7.3769     0.0    6.8272
1594  1581.0  139.460     -4.4674   7.4036     0.0    6.9064
1604  1591.0  139.860     -4.4404   7.4306     0.0    6.9748
1614  1601.0  140.260     -4.4141   7.4569     0.0    7.0531
1624  1611.0  140.660     -4.3874   7.4837     0.0    7.1337
1634  1621.0  141.060     -4.3607   7.5103     0.0    7.2125
1644  1631.0  141.460     -4.3344   7.5366     0.0    7.3051
1654  1641.0  141.860     -4.3074   7.5637     0.0    7.4088
1664  1651.0  142.260     -4.2806   7.5904     0.0    7.5016
1674  1661.0  142.660     -4.2540   7.6171     0.0    7.5944
1684  1671.0  143.060     -4.2274   7.6436     0.0    7.7004
1694  1681.0  143.460     -4.2005   7.6705     0.0    7.8009
1704  1691.0  143.860     -4.1743   7.6968     0.0    7.8983
1714  1701.0  144.260     -4.1474   7.7237     0.0    8.0024
1730  1711.0  144.670     -4.1569   7.7142     0.0    7.7883
1740  1721.0  145.070     -4.1569   7.7142     0.0    7.7406
1750  1731.0  145.470     -4.1567   7.7144     0.0    7.6961
1760  1741.0  145.870     -4.1568   7.7143     0.0    7.6596
1770  1751.0  146.270     -4.1568   7.7143     0.0    7.6287
1780  1761.0  146.670     -4.1570   7.7140     0.0    7.6023
1790  1771.0  147.070     -4.1569   7.7141     0.0    7.5747
1800  1781.0  147.470     -4.1567   7.7143     0.0    7.5514
1810  1791.0  147.870     -4.1568   7.7143     0.0    7.5279
1820  1801.0  148.270     -4.1567   7.7144     0.0    7.5076
1830  1811.0  148.670     -4.1566   7.7144     0.0    7.4864
1840  1821.0  149.070     -4.1567   7.7143     0.0    7.4641
1850  1831.0  149.470     -4.1567   7.7143     0.0    7.4590
1861  1841.0  149.870     -4.1563   7.7147     0.0    7.4368
1871  1851.0  150.270     -4.1566   7.7144     0.0    7.4503
1881  1861.0  150.670     -4.1567   7.7144     0.0    7.4046
1891  1871.0  151.070     -4.1565   7.7145     0.0    7.4191
1901  1881.0  151.470     -4.1566   7.7145     0.0    7.3936
1911  1891.0  151.870     -4.1565   7.7146     0.0    7.3706
1921  1901.0  152.270     -4.1566   7.7144     0.0    7.3742
1931  1911.0  152.670     -4.1565   7.7146     0.0    7.3498
1941  1921.0  153.070     -4.1569   7.7142     0.0    7.3429
1951  1931.0  153.470     -4.1567   7.7143     0.0    7.3409
1961  1941.0  153.870     -4.1567   7.7143     0.0    7.3175
1971  1951.0  154.270     -4.1566   7.7145     0.0    7.3159
1981  1961.0  154.670     -4.1564   7.7146     0.0    7.2863
1991  1971.0  155.070     -4.1565   7.7145     0.0    7.3128
2001  1981.0  155.470     -4.1567   7.7144     0.0    7.2729
2011  1991.0  155.870     -4.1567   7.7143     0.0    7.2317
2021  2001.0  156.270     -4.1568   7.7143     0.0    7.2398
2031  2011.0  156.670     -4.1564   7.7147     0.0    7.2154
2041  2021.0  157.070     -4.1565   7.7146     0.0    7.2080
2051  2031.0  157.470     -4.1565   7.7146     0.0    7.2127
2061  2041.0  157.870     -4.1566   7.7145     0.0    7.1892
2071  2051.0  158.270     -4.1562   7.7148     0.0    7.1905
2081  2061.0  158.670     -4.1565   7.7145     0.0    7.1847
2091  2071.0  159.070     -4.1565   7.7146     0.0    7.1680
2108  2081.0  159.520     -4.1487   7.7223     0.0    7.2742
2118  2091.0  159.920     -4.1224   7.7487     0.0    7.5813
2128  2101.0  160.320     -4.0955   7.7755     0.0    7.8543
2138  2111.0  160.720     -4.0693   7.8018     0.0    8.0686
2148  2121.0  161.120     -4.0425   7.8285     0.0    8.2123
2158  2131.0  161.520     -4.0158   7.8553     0.0    8.3763
2168  2141.0  161.920     -3.9892   7.8818     0.0    8.5614
2178  2151.0  162.320     -3.9624   7.9086     0.0    8.7521
2188  2161.0  162.720     -3.9359   7.9351     0.0    8.9431
2198  2171.0  163.120     -3.9092   7.9618     0.0    9.1271
2208  2181.0  163.520     -3.8825   7.9886     0.0    9.3100
2218  2191.0  163.920     -3.8559   8.0151     0.0    9.4922
2228  2201.0  164.320     -3.8294   8.0417     0.0    9.6717
2238  2211.0  164.720     -3.8026   8.0685     0.0    9.8447
2248  2221.0  165.120     -3.7760   8.0951     0.0   10.0210
2258  2231.0  165.520     -3.7495   8.1215     0.0   10.1962
2268  2241.0  165.920     -3.7227   8.1483     0.0   10.3767
2278  2251.0  166.320     -3.6961   8.1750     0.0   10.5501
2288  2261.0  166.720     -3.6696   8.2015     0.0   10.7232
2298  2271.0  167.120     -3.6429   8.2281     0.0   10.8976
2308  2281.0  167.520     -3.6162   8.2548     0.0   11.0759
2318  2291.0  167.920     -3.5896   8.2815     0.0   11.2509
2328  2301.0  168.320     -3.5631   8.3080     0.0   11.4327
2338  2311.0  168.720     -3.5362   8.3348     0.0   11.6188
2348  2321.0  169.120     -3.5096   8.3615     0.0   11.8086
2358  2331.0  169.520     -3.4830   8.3881     0.0   11.9994
2374  2341.0  169.935     -3.4913   8.3798     0.0   11.7292
2384  2351.0  170.335     -3.4915   8.3795     0.0   11.6469
2394  2361.0  170.735     -3.4915   8.3796     0.0   11.5763
2404  2371.0  171.135     -3.4916   8.3794     0.0   11.5183
2414  2381.0  171.535     -3.4917   8.3794     0.0   11.4660
2424  2391.0  171.935     -3.4915   8.3796     0.0   11.4192
2434  2401.0  172.335     -3.4917   8.3794     0.0   11.3796
2444  2411.0  172.735     -3.4915   8.3795     0.0   11.3377
2454  2421.0  173.135     -3.4916   8.3795     0.0   11.3037
2464  2431.0  173.535     -3.4917   8.3794     0.0   11.2675
2474  2441.0  173.935     -3.4915   8.3796     0.0   11.2389
2484  2451.0  174.335     -3.4914   8.3796     0.0   11.2120
2494  2461.0  174.735     -3.4914   8.3797     0.0   11.1875
2504  2471.0  175.135     -3.4915   8.3796     0.0   11.1577
2515  2481.0  175.535     -3.4913   8.3798     0.0   11.1519
2525  2491.0  175.935     -3.4912   8.3799     0.0   11.1461
2535  2501.0  176.335     -3.4913   8.3797     0.0   11.0887
2545  2511.0  176.735     -3.4914   8.3796     0.0   11.1119
2555  2521.0  177.135     -3.4914   8.3796     0.0   11.0851
2565  2531.0  177.535     -3.4914   8.3797     0.0   11.0551
2575  2541.0  177.935     -3.4914   8.3797     0.0   11.0491
2585  2551.0  178.335     -3.4915   8.3796     0.0   11.0106
2595  2561.0  178.735     -3.4913   8.3798     0.0   11.0109
2605  2571.0  179.135     -3.4915   8.3795     0.0   10.9703
2615  2581.0  179.535     -3.4915   8.3796     0.0   10.9598
2625  2591.0  179.935     -3.4915   8.3796     0.0   10.9267
2635  2601.0  180.335     -3.4914   8.3796     0.0   10.9245
2645  2611.0  180.735     -3.4911   8.3799     0.0   10.9005
2655  2621.0  181.135     -3.4911   8.3799     0.0   10.8949
2665  2631.0  181.535     -3.4912   8.3798     0.0   10.9111
2675  2641.0  181.935     -3.4911   8.3799     0.0   10.8904
2685  2651.0  182.335     -3.4912   8.3798     0.0   10.8683
2695  2661.0  182.735     -3.4913   8.3797     0.0   10.8897
2705  2671.0  183.135     -3.4915   8.3796     0.0   10.8582
2715  2681.0  183.535     -3.4913   8.3797     0.0   10.8244
2725  2691.0  183.935     -3.4912   8.3798     0.0   10.7589
2735  2701.0  184.335     -3.4912   8.3798     0.0   10.8003
2745  2711.0  184.735     -3.4914   8.3797     0.0   10.7564
2755  2721.0  185.135     -3.4912   8.3798     0.0   10.7262
2765  2731.0  185.535     -3.4912   8.3798     0.0   10.7520
2775  2741.0  185.935     -3.4912   8.3798     0.0   10.7186
2785  2751.0  186.335     -3.4913   8.3798     0.0   10.7237
2795  2761.0  186.735     -3.4914   8.3796     0.0   10.7181
2805  2771.0  187.135     -3.4914   8.3797     0.0   10.6935
2815  2781.0  187.535     -3.4912   8.3798     0.0   10.7066
2825  2791.0  187.935     -3.4914   8.3796     0.0   10.6795
2835  2801.0  188.335     -3.4913   8.3797     0.0   10.6756
2845  2811.0  188.735     -3.4914   8.3796     0.0   10.6726
2855  2821.0  189.135     -3.4914   8.3797     0.0   10.6533
2865  2831.0  189.535     -3.4911   8.3799     0.0   10.6587
2875  2841.0  189.935     -3.4912   8.3798     0.0   10.6405
2885  2851.0  190.335     -3.4913   8.3798     0.0   10.6353
2895  2861.0  190.735     -3.4913   8.3798     0.0   10.6324
2905  2871.0  191.135     -3.4913   8.3798     0.0   10.6149
2915  2881.0  191.535     -3.4913   8.3798     0.0   10.6180
2925  2891.0  191.935     -3.4913   8.3798     0.0   10.6054
2935  2901.0  192.335     -3.4914   8.3797     0.0   10.5951
2945  2911.0  192.735     -3.4914   8.3797     0.0   10.5923
2955  2921.0  193.135     -3.4911   8.3799     0.0   10.5791
2965  2931.0  193.535     -3.4914   8.3797     0.0   10.5799
2975  2941.0  193.935     -3.4914   8.3797     0.0   10.5641
2985  2951.0  194.335     -3.4913   8.3798     0.0   10.5636
2995  2961.0  194.735     -3.4913   8.3798     0.0   10.5559
3005  2971.0  195.135     -3.4912   8.3799     0.0   10.5458
3015  2981.0  195.535     -3.4914   8.3796     0.0   10.5426
3025  2991.0  195.935     -3.4914   8.3796     0.0   10.5316
3035  3001.0  196.335     -3.4914   8.3797     0.0   10.5255
3045  3011.0  196.735     -3.4911   8.3799     0.0   10.5206
3055  3021.0  197.135     -3.4912   8.3798     0.0   10.5113
3065  3031.0  197.535     -3.4912   8.3799     0.0   10.5098
3075  3041.0  197.935     -3.4913   8.3798     0.0   10.4983
3085  3051.0  198.335     -3.4914   8.3797     0.0   10.4971
3095  3061.0  198.735     -3.4912   8.3799     0.0   10.4917
3105  3071.0  199.135     -3.4913   8.3797     0.0   10.4856
3115  3081.0  199.535     -3.4911   8.3799     0.0   10.4797
3125  3091.0  199.935     -3.4912   8.3799     0.0   10.4769
3135  3101.0  200.335     -3.4915   8.3796     0.0   10.4708
3145  3111.0  200.735     -3.4911   8.3799     0.0   10.4605
3155  3121.0  201.135     -3.4913   8.3798     0.0   10.4587
3165  3131.0  201.535     -3.4914   8.3797     0.0   10.4569
3175  3141.0  201.935     -3.4911   8.3800     0.0   10.4449
3185  3151.0  202.335     -3.4912   8.3799     0.0   10.4445
3195  3161.0  202.735     -3.4914   8.3796     0.0   10.4334
3205  3171.0  203.135     -3.4912   8.3799     0.0   10.4303
3222  3181.0  203.655     -3.4731   8.3980     0.0   10.7335
3232  3191.0  204.055     -3.4464   8.4246     0.0   11.1522
3242  3201.0  204.455     -3.4200   8.4511     0.0   11.5301
3252  3211.0  204.855     -3.3930   8.4780     0.0   11.8973
3262  3221.0  205.255     -3.3666   8.5045     0.0   12.2396
3272  3231.0  205.655     -3.3399   8.5312     0.0   12.5431
3282  3241.0  206.055     -3.3135   8.5576     0.0   12.8444
3292  3251.0  206.455     -3.2867   8.5843     0.0   13.1396
