           Num   Time(s)  PosAbs(mm)  Pos(mm)  Pos(%)  Load(kN)
0          1.0     0.005     -0.1993  -0.0021     0.0    0.0832
10        11.0     2.005     -0.1336   0.0637     0.0    0.1105
20        21.0     4.005     -0.0670   0.1303     0.0    0.1349
30        31.0     6.005     -0.0004   0.1969     0.0    0.1617
40        41.0     8.005      0.0664   0.2636     0.0    0.1906
50        51.0    10.005      0.1330   0.3302     0.0    0.2190
60        61.0    12.005      0.1997   0.3969     0.0    0.2498
70        71.0    14.005      0.2664   0.4636     0.0    0.2837
80        81.0    16.005      0.3330   0.5302     0.0    0.3147
90        91.0    18.005      0.3996   0.5968     0.0    0.3465
100      101.0    20.005      0.4664   0.6636     0.0    0.3869
110      111.0    22.005      0.5330   0.7302     0.0    0.4205
120      121.0    24.005      0.5996   0.7968     0.0    0.4664
130      131.0    26.005      0.6663   0.8635     0.0    0.5080
140      141.0    28.005      0.7329   0.9301     0.0    0.5555
150      151.0    30.005      0.7996   0.9968     0.0    0.6000
160      161.0    32.005      0.8663   1.0635     0.0    0.6508
170      171.0    34.005      0.9329   1.1301     0.0    0.7008
180      181.0    36.005      0.9996   1.1969     0.0    0.7564
190      191.0    38.005      1.0663   1.2635     0.0    0.8095
200      201.0    40.005      1.1329   1.3301     0.0    0.8692
210      211.0    42.005      1.1996   1.3969     0.0    0.9303
220      221.0    44.005      1.2663   1.4635     0.0    0.9929
230      231.0    46.005      1.3329   1.5301     0.0    1.0593
240      241.0    48.005      1.3997   1.5969     0.0    1.1250
250      251.0    50.005      1.4661   1.6634     0.0    1.1978
260      261.0    52.005      1.5330   1.7302     0.0    1.2752
270      271.0    54.005      1.5995   1.7967     0.0    1.3502
280      281.0    56.005      1.6663   1.8635     0.0    1.4329
290      291.0    58.005      1.7328   1.9301     0.0    1.5148
300      301.0    60.005      1.7998   1.9970     0.0    1.6034
310      311.0    62.005      1.8662   2.0634     0.0    1.6939
320      321.0    64.005      1.9328   2.1300     0.0    1.7900
330      331.0    66.005      1.9995   2.1968     0.0    1.8854
340      341.0    68.005      2.0663   2.2635     0.0    1.9910
350      351.0    70.005      2.1330   2.3302     0.0    2.0965
360      361.0    72.005      2.1995   2.3968     0.0    2.2084
370      371.0    74.005      2.2662   2.4634     0.0    2.3219
380      381.0    76.005      2.3330   2.5302     0.0    2.4422
390      391.0    78.005      2.3996   2.5968     0.0    2.5666
400      401.0    80.005      2.4662   2.6634     0.0    2.6934
410      411.0    82.005      2.5330   2.7302     0.0    2.7433
420      421.0    84.005      2.5996   2.7969     0.0    2.7557
430      431.0    86.005      2.6662   2.8634     0.0    2.8032
440      441.0    88.005      2.7329   2.9301     0.0    2.8188
450      451.0    90.005      2.7996   2.9968     0.0    2.8198
460      461.0    92.005      2.8662   3.0635     0.0    2.8415
470      471.0    94.005      2.9330   3.1302     0.0    2.8488
480      481.0    96.005      2.9999   3.1971     0.0    2.8745
490      491.0    98.005      3.0665   3.2637     0.0    2.8811
500      501.0   100.005      3.1331   3.3304     0.0    2.8855
510      511.0   102.005      3.1997   3.3969     0.0    2.9268
520      521.0   104.005      3.2664   3.4637     0.0    2.9337
530      531.0   106.005      3.3331   3.5303     0.0    2.9440
540      541.0   108.005      3.3995   3.5967     0.0    2.9944
550      551.0   110.005      3.4663   3.6635     0.0    3.0678
560      561.0   112.005      3.5331   3.7303     0.0    3.1284
570      571.0   114.005      3.5998   3.7970     0.0    3.1804
580      581.0   116.005      3.6665   3.8637     0.0    3.2581
590      591.0   118.005      3.7331   3.9303     0.0    3.3131
600      601.0   120.005      3.7999   3.9971     0.0    3.3173
610      611.0   122.005      3.8666   4.0639     0.0    3.3219
620      621.0   124.005      3.9331   4.1303     0.0    3.3194
630      631.0   126.005      3.9994   4.1966     0.0    3.3254
640      641.0   128.005      4.0668   4.2640     0.0    3.3195
650      651.0   130.005      4.1329   4.3302     0.0    3.3160
660      661.0   132.005      4.1998   4.3970     0.0    3.3398
670      671.0   134.005      4.2667   4.4639     0.0    3.3520
680      681.0   136.005      4.3332   4.5305     0.0    3.3658
690      691.0   138.005      4.3999   4.5972     0.0    3.3738
700      701.0   140.005      4.4664   4.6636     0.0    3.3766
710      711.0   142.005      4.5330   4.7303     0.0    3.3775
720      721.0   144.005      4.5996   4.7969     0.0    3.3805
730      731.0   146.005      4.6665   4.8638     0.0    3.3861
740      741.0   148.005      4.7332   4.9304     0.0    3.3907
750      751.0   150.005      4.7999   4.9971     0.0    3.3978
760      761.0   152.005      4.8667   5.0639     0.0    3.4028
770      771.0   154.005      4.9334   5.1306     0.0    3.4186
780      781.0   156.005      4.9996   5.1968     0.0    3.4345
790      791.0   158.005      5.0665   5.2637     0.0    3.4701
800      801.0   160.005      5.1334   5.3307     0.0    3.5827
810      811.0   162.005      5.2001   5.3973     0.0    3.7249
820      821.0   164.005      5.2664   5.4637     0.0    3.8147
830      831.0   166.005      5.3335   5.5307     0.0    3.8782
840      841.0   168.005      5.4000   5.5972     0.0    3.9922
850      851.0   170.005      5.4666   5.6638     0.0    4.1033
860      861.0   172.005      5.5337   5.7309     0.0    4.2044
870      871.0   174.005      5.5999   5.7971     0.0    4.2232
880      881.0   176.005      5.6664   5.8636     0.0    4.3342
890      891.0   178.005      5.7336   5.9308     0.0    4.5542
900      901.0   180.005      5.7999   5.9971     0.0    4.7857
910      911.0   182.005      5.8666   6.0639     0.0    4.9978
920      921.0   184.005      5.9331   6.1304     0.0    5.1810
930      931.0   186.005      6.0000   6.1972     0.0    5.3522
940      941.0   188.005      6.0669   6.2642     0.0    5.5236
950      951.0   190.005      6.1336   6.3308     0.0    5.6610
960      961.0   192.005      6.2001   6.3973     0.0    5.8099
970      971.0   194.005      6.2665   6.4637     0.0    5.9667
980      981.0   196.005      6.3331   6.5304     0.0    6.1488
990      991.0   198.005      6.4001   6.5973     0.0    6.3132
1000    1001.0   200.005      6.4665   6.6637     0.0    6.4365
1010    1011.0   202.005      6.5331   6.7303     0.0    6.6012
1020    1021.0   204.005      6.6003   6.7975     0.0    6.7773
1030    1031.0   206.005      6.6662   6.8634     0.0    6.9585
1040    1041.0   208.005      6.7333   6.9305     0.0    7.1621
1050    1051.0   210.005      6.8002   6.9974     0.0    7.3650
1060    1061.0   212.005      6.8666   7.0638     0.0    7.5774
1070    1071.0   214.005      6.9335   7.1308     0.0    7.8166
1080    1081.0   216.005      6.9999   7.1972     0.0    8.1556
1090    1091.0   218.005      7.0665   7.2638     0.0    8.4860
1100    1101.0   220.005      7.1338   7.3310     0.0    8.8145
1110    1111.0   222.005      7.2001   7.3973     0.0    9.1447
1120    1121.0   224.005      7.2667   7.4639     0.0    9.4825
1130    1131.0   226.005      7.3333   7.5305     0.0    9.8292
1140    1141.0   228.005      7.4002   7.5975     0.0   10.1955
1150    1151.0   230.005      7.4667   7.6640     0.0   10.5650
1160    1161.0   232.005      7.5332   7.7304     0.0   10.9679
1170    1171.0   234.005      7.6001   7.7974     0.0   11.3865
1180    1181.0   236.005      7.6664   7.8637     0.0   11.8282
1190    1191.0   238.005      7.7338   7.9310     0.0   12.3009
1200    1201.0   240.005      7.7998   7.9971     0.0   12.7683
1210    1211.0   242.005      7.8668   8.0640     0.0   13.2757
1220    1221.0   244.005      7.9330   8.1302     0.0   13.8013
1230    1231.0   246.005      7.9998   8.1971     0.0   14.3329
1240    1241.0   248.005      8.0665   8.2637     0.0   14.8867
1256    1251.0   248.705      8.0602   8.2575     0.0   14.5870
1266    1261.0   249.105      8.0594   8.2566     0.0   14.5349
1276    1271.0   249.505      8.0600   8.2572     0.0   14.4831
1286    1281.0   249.905      8.0604   8.2576     0.0   14.4449
1296    1291.0   250.305      8.0601   8.2573     0.0   14.3939
1306    1301.0   250.705      8.0604   8.2576     0.0   14.3574
1316    1311.0   251.105      8.0605   8.2577     0.0   14.3214
1326    1321.0   251.505      8.0600   8.2572     0.0   14.2774
1336    1331.0   251.905      8.0602   8.2574     0.0   14.2398
1346    1341.0   252.305      8.0605   8.2577     0.0   14.2151
1356    1351.0   252.705      8.0601   8.2573     0.0   14.1844
1366    1361.0   253.105      8.0601   8.2573     0.0   14.1581
1376    1371.0   253.505      8.0602   8.2574     0.0   14.1239
1386    1381.0   253.905      8.0599   8.2571     0.0   14.1062
1396    1391.0   254.305      8.0603   8.2575     0.0   14.0793
1406    1401.0   254.705      8.0602   8.2574     0.0   14.0505
1416    1411.0   255.105      8.0601   8.2574     0.0   14.0271
1426    1421.0   255.505      8.0601   8.2573     0.0   14.0053
1437    1431.0   255.905      8.0606   8.2578     0.0   13.9872
1447    1441.0   256.305      8.0600   8.2573     0.0   13.9587
1457    1451.0   256.705      8.0605   8.2577     0.0   13.9386
1467    1461.0   257.105      8.0601   8.2573     0.0   13.9252
1477    1471.0   257.505      8.0599   8.2571     0.0   13.9033
1487    1481.0   257.905      8.0602   8.2574     0.0   13.8974
1497    1491.0   258.305      8.0597   8.2569     0.0   13.8806
1507    1501.0   258.705      8.0600   8.2572     0.0   13.8580
1517    1511.0   259.105      8.0599   8.2572     0.0   13.8426
1527    1521.0   259.505      8.0597   8.2569     0.0   13.8310
1537    1531.0   259.905      8.0604   8.2576     0.0   13.8059
1547    1541.0   260.305      8.0600   8.2573     0.0   13.7910
1557    1551.0   260.705      8.0604   8.2576     0.0   13.7772
1567    1561.0   261.105      8.0601   8.2573     0.0   13.7637
1577    1571.0   261.505      8.0603   8.2576     0.0   13.7582
1587    1581.0   261.905      8.0605   8.2578     0.0   13.7304
1597    1591.0   262.305      8.0605   8.2577     0.0   13.7052
1607    1601.0   262.705      8.0608   8.2581     0.0   13.6898
1617    1611.0   263.105      8.0599   8.2571     0.0   13.6713
1627    1621.0   263.505      8.0605   8.2577     0.0   13.7009
1637    1631.0   263.905      8.0601   8.2573     0.0   13.6796
1647    1641.0   264.305      8.0601   8.2573     0.0   13.6715
1657    1651.0   264.705      8.0598   8.2570     0.0   13.6500
1667    1661.0   265.105      8.0600   8.2572     0.0   13.6503
1677    1671.0   265.505      8.0603   8.2576     0.0   13.6410
1687    1681.0   265.905      8.0601   8.2573     0.0   13.6039
1697    1691.0   266.305      8.0603   8.2575     0.0   13.5819
1707    1701.0   266.705      8.0607   8.2580     0.0   13.5890
1717    1711.0   267.105      8.0597   8.2570     0.0   13.5708
1727    1721.0   267.505      8.0597   8.2569     0.0   13.5473
1737    1731.0   267.905      8.0601   8.2573     0.0   13.5413
1747    1741.0   268.305      8.0603   8.2575     0.0   13.5351
1757    1751.0   268.705      8.0603   8.2575     0.0   13.5306
1767    1761.0   269.105      8.0595   8.2568     0.0   13.5073
1777    1771.0   269.505      8.0602   8.2575     0.0   13.5080
1787    1781.0   269.905      8.0602   8.2575     0.0   13.4877
1797    1791.0   270.305      8.0603   8.2575     0.0   13.4825
1807    1801.0   270.705      8.0602   8.2574     0.0   13.4605
1817    1811.0   271.105      8.0603   8.2575     0.0   13.4539
1827    1821.0   271.505      8.0604   8.2576     0.0   13.4497
1837    1831.0   271.905      8.0604   8.2577     0.0   13.4430
1847    1841.0   272.305      8.0602   8.2574     0.0   13.4347
1857    1851.0   272.705      8.0605   8.2577     0.0   13.4255
1867    1861.0   273.105      8.0599   8.2571     0.0   13.4167
1877    1871.0   273.505      8.0603   8.2576     0.0   13.4062
1887    1881.0   273.905      8.0601   8.2573     0.0   13.3921
1897    1891.0   274.305      8.0600   8.2573     0.0   13.3868
1907    1901.0   274.705      8.0606   8.2578     0.0   13.3777
1917    1911.0   275.105      8.0602   8.2574     0.0   13.3737
1927    1921.0   275.505      8.0604   8.2577     0.0   13.3633
1937    1931.0   275.905      8.0599   8.2572     0.0   13.3628
1947    1941.0   276.305      8.0603   8.2575     0.0   13.3516
1957    1951.0   276.705      8.0599   8.2572     0.0   13.3548
1967    1961.0   277.105      8.0600   8.2572     0.0   13.3363
1977    1971.0   277.505      8.0599   8.2571     0.0   13.3328
1987    1981.0   277.905      8.0604   8.2576     0.0   13.3271
1997    1991.0   278.305      8.0601   8.2573     0.0   13.3214
2007    2001.0   278.705      8.0606   8.2578     0.0   13.3055
2017    2011.0   279.105      8.0598   8.2570     0.0   13.2976
2027    2021.0   279.505      8.0603   8.2575     0.0   13.2890
2037    2031.0   279.905      8.0600   8.2572     0.0   13.2808
2047    2041.0   280.305      8.0602   8.2574     0.0   13.2766
2057    2051.0   280.705      8.0604   8.2576     0.0   13.2623
2067    2061.0   281.105      8.0601   8.2573     0.0   13.2611
2077    2071.0   281.505      8.0602   8.2574     0.0   13.2470
2087    2081.0   281.905      8.0599   8.2571     0.0   13.2414
2097    2091.0   282.305      8.0600   8.2573     0.0   13.2353
2107    2101.0   282.705      8.0597   8.2569     0.0   13.2236
2117    2111.0   283.105      8.0605   8.2577     0.0   13.2271
2127    2121.0   283.505      8.0605   8.2577     0.0   13.2264
2137    2131.0   283.905      8.0604   8.2577     0.0   13.2112
2147    2141.0   284.305      8.0603   8.2575     0.0   13.2117
2157    2151.0   284.705      8.0605   8.2577     0.0   13.2070
2167    2161.0   285.105      8.0604   8.2576     0.0   13.1870
2177    2171.0   285.505      8.0605   8.2578     0.0   13.1894
2187    2181.0   285.905      8.0604   8.2576     0.0   13.1752
2197    2191.0   286.305      8.0602   8.2575     0.0   13.1777
2207    2201.0   286.705      8.0599   8.2571     0.0   13.1664
2217    2211.0   287.105      8.0604   8.2576     0.0   13.1654
2227    2221.0   287.505      8.0607   8.2579     0.0   13.1605
2237    2231.0   287.905      8.0601   8.2574     0.0   13.1602
2247    2241.0   288.305      8.0601   8.2574     0.0   13.1480
2257    2251.0   288.705      8.0606   8.2578     0.0   13.1363
2267    2261.0   289.105      8.0608   8.2580     0.0   13.1274
2277    2271.0   289.505      8.0604   8.2576     0.0   13.1237
2287    2281.0   289.905      8.0602   8.2574     0.0   13.1144
2297    2291.0   290.305      8.0602   8.2574     0.0   13.1054
2307    2301.0   290.705      8.0600   8.2573     0.0   13.0945
2317    2311.0   291.105      8.0607   8.2580     0.0   13.0901
2327    2321.0   291.505      8.0606   8.2578     0.0   13.0815
2337    2331.0   291.905      8.0607   8.2579     0.0   13.0884
2347    2341.0   292.305      8.0599   8.2571     0.0   13.0798
2357    2351.0   292.705      8.0607   8.2579     0.0   13.0687
2367    2361.0   293.105      8.0603   8.2576     0.0   13.0548
2377    2371.0   293.505      8.0602   8.2574     0.0   13.0522
2387    2381.0   293.905      8.0606   8.2578     0.0   13.0439
2397    2391.0   294.305      8.0601   8.2574     0.0   13.0493
2407    2401.0   294.705      8.0605   8.2577     0.0   13.0363
2417    2411.0   295.105      8.0600   8.2573     0.0   13.0325
2427    2421.0   295.505      8.0604   8.2576     0.0   13.0314
2437    2431.0   295.905      8.0602   8.2575     0.0   13.0241
2447    2441.0   296.305      8.0602   8.2574     0.0   13.0229
2457    2451.0   296.705      8.0603   8.2575     0.0   13.0219
2467    2461.0   297.105      8.0603   8.2575     0.0   13.0198
2477    2471.0   297.505      8.0600   8.2572     0.0   13.0183
2487    2481.0   297.905      8.0600   8.2572     0.0   13.0164
2497    2491.0   298.305      8.0603   8.2575     0.0   13.0067
2507    2501.0   298.705      8.0596   8.2568     0.0   12.9855
2517    2511.0   299.105      8.0605   8.2577     0.0   12.9824
2527    2521.0   299.505      8.0606   8.2578     0.0   13.0143
2537    2531.0   299.905      8.0603   8.2575     0.0   12.9904
2547    2541.0   300.305      8.0600   8.2573     0.0   12.9578
2557    2551.0   300.705      8.0603   8.2575     0.0   12.9731
2567    2561.0   301.105      8.0604   8.2576     0.0   13.0147
2577    2571.0   301.505      8.0603   8.2575     0.0   12.9741
2587    2581.0   301.905      8.0606   8.2578     0.0   12.9274
2597    2591.0   302.305      8.0600   8.2572     0.0   12.9311
2607    2601.0   302.705      8.0603   8.2575     0.0   12.9732
2617    2611.0   303.105      8.0605   8.2578     0.0   12.9758
2627    2621.0   303.505      8.0602   8.2574     0.0   12.9759
2637    2631.0   303.905      8.0606   8.2578     0.0   12.9510
2647    2641.0   304.305      8.0598   8.2570     0.0   12.9404
2657    2651.0   304.705      8.0601   8.2574     0.0   12.9495
2667    2661.0   305.105      8.0607   8.2579     0.0   12.9328
2677    2671.0   305.505      8.0607   8.2580     0.0   12.9212
2687    2681.0   305.905      8.0609   8.2581     0.0   12.9192
2697    2691.0   306.305      8.0604   8.2576     0.0   12.9116
2707    2701.0   306.705      8.0602   8.2575     0.0   12.9042
2717    2711.0   307.105      8.0606   8.2579     0.0   12.9022
2727    2721.0   307.505      8.0601   8.2574     0.0   12.8979
2737    2731.0   307.905      8.0603   8.2575     0.0   12.8934
2747    2741.0   308.305      8.0608   8.2581     0.0   12.8916
2757    2751.0   308.705      8.0608   8.2580     0.0   12.9032
2767    2761.0   309.105      8.0600   8.2573     0.0   12.8898
2777    2771.0   309.505      8.0600   8.2572     0.0   12.8828
2787    2781.0   309.905      8.0609   8.2581     0.0   12.8961
2797    2791.0   310.305      8.0600   8.2573     0.0   12.8847
2807    2801.0   310.705      8.0601   8.2574     0.0   12.8794
2817    2811.0   311.105      8.0600   8.2572     0.0   12.8839
2827    2821.0   311.505      8.0604   8.2576     0.0   12.8643
2837    2831.0   311.905      8.0606   8.2578     0.0   12.8491
2847    2841.0   312.305      8.0604   8.2576     0.0   12.8452
2857    2851.0   312.705      8.0603   8.2575     0.0   12.8892
2867    2861.0   313.105      8.0601   8.2574     0.0   12.8585
2877    2871.0   313.505      8.0607   8.2579     0.0   12.8574
2887    2881.0   313.905      8.0600   8.2573     0.0   12.8833
2897    2891.0   314.305      8.0605   8.2577     0.0   12.8650
2907    2901.0   314.705      8.0600   8.2573     0.0   12.8340
2917    2911.0   315.105      8.0604   8.2576     0.0   12.8262
2927    2921.0   315.505      8.0605   8.2577     0.0   12.8232
2937    2931.0   315.905      8.0602   8.2574     0.0   12.8349
2947    2941.0   316.305      8.0602   8.2574     0.0   12.8300
2957    2951.0   316.705      8.0600   8.2572     0.0   12.8274
2967    2961.0   317.105      8.0606   8.2578     0.0   12.7981
2977    2971.0   317.505      8.0603   8.2575     0.0   12.8057
2987    2981.0   317.905      8.0601   8.2574     0.0   12.7998
2997    2991.0   318.305      8.0599   8.2571     0.0   12.7924
3007    3001.0   318.705      8.0607   8.2579     0.0   12.7994
3017    3011.0   319.105      8.0603   8.2575     0.0   12.7668
3027    3021.0   319.505      8.0602   8.2575     0.0   12.7804
3037    3031.0   319.905      8.0602   8.2574     0.0   12.7928
3047    3041.0   320.305      8.0603   8.2575     0.0   12.7953
3057    3051.0   320.705      8.0607   8.2580     0.0   12.7758
3067    3061.0   321.105      8.0603   8.2575     0.0   12.7688
3077    3071.0   321.505      8.0605   8.2577     0.0   12.7644
3087    3081.0   321.905      8.0605   8.2577     0.0   12.7652
3097    3091.0   322.305      8.0605   8.2577     0.0   12.7581
3107    3101.0   322.705      8.0605   8.2577     0.0   12.7420
