           Num   Time(s)  PosAbs(mm)  Pos(mm)  Pos(%)  Load(kN)
0          1.0     0.005      0.7106  -0.0009     0.0    0.0844
10        11.0     2.005      0.7765   0.0651     0.0    0.1133
20        21.0     4.005      0.8430   0.1316     0.0    0.1342
30        31.0     6.005      0.9098   0.1983     0.0    0.1560
40        41.0     8.005      0.9767   0.2652     0.0    0.1807
50        51.0    10.005      1.0431   0.3317     0.0    0.2041
60        61.0    12.005      1.1100   0.3985     0.0    0.2283
70        71.0    14.005      1.1766   0.4652     0.0    0.2548
80        81.0    16.005      1.2431   0.5317     0.0    0.2825
90        91.0    18.005      1.3100   0.5985     0.0    0.3123
100      101.0    20.005      1.3764   0.6650     0.0    0.3390
110      111.0    22.005      1.4431   0.7317     0.0    0.3723
120      121.0    24.005      1.5097   0.7983     0.0    0.4070
130      131.0    26.005      1.5764   0.8650     0.0    0.4433
140      141.0    28.005      1.6430   0.9316     0.0    0.4793
150      151.0    30.005      1.7096   0.9982     0.0    0.5193
160      161.0    32.005      1.7763   1.0649     0.0    0.5638
170      171.0    34.005      1.8431   1.1316     0.0    0.6069
180      181.0    36.005      1.9097   1.1983     0.0    0.6570
190      191.0    38.005      1.9763   1.2648     0.0    0.7059
200      201.0    40.005      2.0432   1.3318     0.0    0.7610
210      211.0    42.005      2.1098   1.3983     0.0    0.8175
220      221.0    44.005      2.1764   1.4650     0.0    0.8750
230      231.0    46.005      2.2431   1.5316     0.0    0.9407
240      241.0    48.005      2.3098   1.5983     0.0    1.0095
250      251.0    50.005      2.3765   1.6650     0.0    1.0793
260      261.0    52.005      2.4431   1.7317     0.0    1.1537
270      271.0    54.005      2.5099   1.7985     0.0    1.2315
280      281.0    56.005      2.5764   1.8650     0.0    1.3128
290      291.0    58.005      2.6434   1.9319     0.0    1.4035
300      301.0    60.005      2.7099   1.9984     0.0    1.4952
310      311.0    62.005      2.7764   2.0650     0.0    1.5912
320      321.0    64.005      2.8434   2.1319     0.0    1.6960
330      331.0    66.005      2.9099   2.1984     0.0    1.8018
340      341.0    68.005      2.9766   2.2651     0.0    1.9133
350      351.0    70.005      3.0431   2.3317     0.0    2.0335
360      361.0    72.005      3.1099   2.3985     0.0    2.1578
370      371.0    74.005      3.1763   2.4648     0.0    2.2854
380      381.0    76.005      3.2433   2.5318     0.0    2.4289
390      391.0    78.005      3.3099   2.5984     0.0    2.5690
400      401.0    80.005      3.3766   2.6652     0.0    2.7201
410      411.0    82.005      3.4430   2.7315     0.0    2.8432
420      421.0    84.005      3.5098   2.7984     0.0    2.8921
430      431.0    86.005      3.5765   2.8651     0.0    2.9513
440      441.0    88.005      3.6433   2.9318     0.0    3.0447
450      451.0    90.005      3.7098   2.9983     0.0    3.0656
460      461.0    92.005      3.7766   3.0652     0.0    3.0935
470      471.0    94.005      3.8433   3.1318     0.0    3.1091
480      481.0    96.005      3.9101   3.1987     0.0    3.1251
490      491.0    98.005      3.9767   3.2652     0.0    3.1493
500      501.0   100.005      4.0434   3.3319     0.0    3.1655
510      511.0   102.005      4.1100   3.3986     0.0    3.1815
520      521.0   104.005      4.1766   3.4652     0.0    3.2052
530      531.0   106.005      4.2431   3.5317     0.0    3.2252
540      541.0   108.005      4.3101   3.5986     0.0    3.2237
550      551.0   110.005      4.3763   3.6649     0.0    3.2270
560      561.0   112.005      4.4433   3.7319     0.0    3.2381
570      571.0   114.005      4.5098   3.7984     0.0    3.2482
580      581.0   116.005      4.5766   3.8652     0.0    3.2490
590      591.0   118.005      4.6432   3.9318     0.0    3.2696
600      601.0   120.005      4.7102   3.9987     0.0    3.2938
610      611.0   122.005      4.7767   4.0653     0.0    3.3075
620      621.0   124.005      4.8433   4.1319     0.0    3.3061
630      631.0   126.005      4.9098   4.1984     0.0    3.3162
640      641.0   128.005      4.9767   4.2653     0.0    3.3235
650      651.0   130.005      5.0435   4.3321     0.0    3.3322
660      661.0   132.005      5.1100   4.3985     0.0    3.3447
670      671.0   134.005      5.1770   4.4655     0.0    3.3564
680      681.0   136.005      5.2433   4.5318     0.0    3.3528
690      691.0   138.005      5.3097   4.5983     0.0    3.3608
700      701.0   140.005      5.3765   4.6651     0.0    3.3639
710      711.0   142.005      5.4435   4.7321     0.0    3.3705
720      721.0   144.005      5.5100   4.7986     0.0    3.3653
730      731.0   146.005      5.5767   4.8653     0.0    3.3670
740      741.0   148.005      5.6430   4.9316     0.0    3.3751
750      751.0   150.005      5.7101   4.9987     0.0    3.3893
760      761.0   152.005      5.7764   5.0650     0.0    3.4025
770      771.0   154.005      5.8429   5.1315     0.0    3.4078
780      781.0   156.005      5.9098   5.1983     0.0    3.4134
790      791.0   158.005      5.9766   5.2651     0.0    3.4304
800      801.0   160.005      6.0435   5.3321     0.0    3.5206
810      811.0   162.005      6.1102   5.3987     0.0    3.5779
820      821.0   164.005      6.1769   5.4655     0.0    3.7282
830      831.0   166.005      6.2434   5.5319     0.0    3.8351
840      841.0   168.005      6.3101   5.5987     0.0    3.8802
850      851.0   170.005      6.3765   5.6651     0.0    4.0813
860      861.0   172.005      6.4432   5.7318     0.0    4.3606
870      871.0   174.005      6.5101   5.7986     0.0    4.6156
880      881.0   176.005      6.5766   5.8652     0.0    4.8274
890      891.0   178.005      6.6435   5.9320     0.0    5.0189
900      901.0   180.005      6.7101   5.9986     0.0    5.1984
910      911.0   182.005      6.7763   6.0649     0.0    5.3427
920      921.0   184.005      6.8432   6.1318     0.0    5.4954
930      931.0   186.005      6.9096   6.1982     0.0    5.6983
940      941.0   188.005      6.9765   6.2650     0.0    5.8761
950      951.0   190.005      7.0437   6.3323     0.0    6.0313
960      961.0   192.005      7.1098   6.3984     0.0    6.1887
970      971.0   194.005      7.1770   6.4656     0.0    6.3822
980      981.0   196.005      7.2431   6.5317     0.0    6.5747
990      991.0   198.005      7.3103   6.5989     0.0    6.7869
1000    1001.0   200.005      7.3767   6.6653     0.0    7.0136
1010    1011.0   202.005      7.4439   6.7324     0.0    7.2484
1020    1021.0   204.005      7.5102   6.7988     0.0    7.6531
1030    1031.0   206.005      7.5767   6.8652     0.0    8.0244
1040    1041.0   208.005      7.6431   6.9317     0.0    8.4058
1050    1051.0   210.005      7.7101   6.9986     0.0    8.8019
1060    1061.0   212.005      7.7767   7.0652     0.0    9.1918
1070    1071.0   214.005      7.8433   7.1318     0.0    9.6023
1080    1081.0   216.005      7.9100   7.1985     0.0   10.0346
1090    1091.0   218.005      7.9766   7.2651     0.0   10.5137
1100    1101.0   220.005      8.0439   7.3325     0.0   10.9954
1110    1111.0   222.005      8.1099   7.3985     0.0   11.5037
1120    1121.0   224.005      8.1767   7.4652     0.0   12.0547
1130    1131.0   226.005      8.2433   7.5319     0.0   12.6311
1140    1141.0   228.005      8.3100   7.5986     0.0   13.2187
1150    1151.0   230.005      8.3769   7.6655     0.0   13.8351
1160    1161.0   232.005      8.4438   7.7323     0.0   14.4872
1176    1171.0   233.710      8.4804   7.7690     0.0   14.6503
1186    1181.0   234.110      8.4807   7.7692     0.0   14.5936
1196    1191.0   234.510      8.4803   7.7689     0.0   14.5277
1206    1201.0   234.910      8.4802   7.7687     0.0   14.4799
1216    1211.0   235.310      8.4800   7.7686     0.0   14.4358
1226    1221.0   235.710      8.4802   7.7687     0.0   14.3834
1236    1231.0   236.110      8.4805   7.7691     0.0   14.3434
1246    1241.0   236.510      8.4805   7.7691     0.0   14.2986
1256    1251.0   236.910      8.4803   7.7689     0.0   14.2623
1266    1261.0   237.310      8.4806   7.7692     0.0   14.2434
1276    1271.0   237.710      8.4801   7.7687     0.0   14.2135
1286    1281.0   238.110      8.4802   7.7688     0.0   14.1828
1296    1291.0   238.510      8.4804   7.7689     0.0   14.1575
1306    1301.0   238.910      8.4803   7.7689     0.0   14.1293
1316    1311.0   239.310      8.4800   7.7686     0.0   14.1006
1326    1321.0   239.710      8.4803   7.7688     0.0   14.0891
1336    1331.0   240.110      8.4802   7.7687     0.0   14.0598
1346    1341.0   240.510      8.4807   7.7692     0.0   14.0307
1356    1351.0   240.910      8.4809   7.7695     0.0   14.0054
1366    1361.0   241.310      8.4802   7.7687     0.0   13.9768
1376    1371.0   241.710      8.4806   7.7691     0.0   13.9640
1386    1381.0   242.110      8.4804   7.7690     0.0   13.9590
1396    1391.0   242.510      8.4804   7.7690     0.0   13.9340
1406    1401.0   242.910      8.4806   7.7692     0.0   13.9070
1417    1411.0   243.310      8.4804   7.7690     0.0   13.8870
1427    1421.0   243.710      8.4805   7.7690     0.0   13.8672
1437    1431.0   244.110      8.4803   7.7689     0.0   13.8625
1447    1441.0   244.510      8.4803   7.7689     0.0   13.8386
1457    1451.0   244.910      8.4803   7.7688     0.0   13.8296
1467    1461.0   245.310      8.4803   7.7689     0.0   13.8059
1477    1471.0   245.710      8.4802   7.7688     0.0   13.7855
1487    1481.0   246.110      8.4803   7.7689     0.0   13.7854
1497    1491.0   246.510      8.4805   7.7691     0.0   13.7631
1507    1501.0   246.910      8.4802   7.7687     0.0   13.7582
1517    1511.0   247.310      8.4803   7.7689     0.0   13.7390
1527    1521.0   247.710      8.4798   7.7684     0.0   13.7155
1537    1531.0   248.110      8.4809   7.7694     0.0   13.7185
1547    1541.0   248.510      8.4807   7.7693     0.0   13.7039
1557    1551.0   248.910      8.4804   7.7689     0.0   13.6871
1567    1561.0   249.310      8.4807   7.7693     0.0   13.6648
1577    1571.0   249.710      8.4803   7.7688     0.0   13.6572
1587    1581.0   250.110      8.4803   7.7689     0.0   13.6515
1597    1591.0   250.510      8.4801   7.7687     0.0   13.6353
1607    1601.0   250.910      8.4800   7.7686     0.0   13.6215
1617    1611.0   251.310      8.4801   7.7687     0.0   13.6113
1627    1621.0   251.710      8.4803   7.7689     0.0   13.6044
1637    1631.0   252.110      8.4801   7.7687     0.0   13.6241
1647    1641.0   252.510      8.4811   7.7697     0.0   13.6026
1657    1651.0   252.910      8.4800   7.7685     0.0   13.5730
1667    1661.0   253.310      8.4800   7.7686     0.0   13.5654
1677    1671.0   253.710      8.4812   7.7698     0.0   13.5586
1687    1681.0   254.110      8.4803   7.7688     0.0   13.5694
1697    1691.0   254.510      8.4809   7.7695     0.0   13.5523
1707    1701.0   254.910      8.4803   7.7689     0.0   13.5396
1717    1711.0   255.310      8.4807   7.7692     0.0   13.5442
1727    1721.0   255.710      8.4802   7.7688     0.0   13.5191
1737    1731.0   256.110      8.4802   7.7688     0.0   13.5007
1747    1741.0   256.510      8.4804   7.7690     0.0   13.5000
1757    1751.0   256.910      8.4805   7.7691     0.0   13.4930
1767    1761.0   257.310      8.4803   7.7689     0.0   13.4925
1777    1771.0   257.710      8.4803   7.7688     0.0   13.4614
1787    1781.0   258.110      8.4805   7.7690     0.0   13.4686
1797    1791.0   258.510      8.4805   7.7691     0.0   13.4619
1807    1801.0   258.910      8.4805   7.7691     0.0   13.4472
1817    1811.0   259.310      8.4805   7.7690     0.0   13.4340
1827    1821.0   259.710      8.4806   7.7692     0.0   13.4384
1837    1831.0   260.110      8.4805   7.7691     0.0   13.4166
1847    1841.0   260.510      8.4805   7.7691     0.0   13.4300
1857    1851.0   260.910      8.4801   7.7687     0.0   13.4305
1867    1861.0   261.310      8.4806   7.7692     0.0   13.3981
1877    1871.0   261.710      8.4801   7.7686     0.0   13.3477
1887    1881.0   262.110      8.4806   7.7692     0.0   13.3427
1897    1891.0   262.510      8.4803   7.7688     0.0   13.3407
1907    1901.0   262.910      8.4800   7.7686     0.0   13.3242
1917    1911.0   263.310      8.4804   7.7690     0.0   13.3305
1927    1921.0   263.710      8.4803   7.7689     0.0   13.3346
1937    1931.0   264.110      8.4803   7.7688     0.0   13.3162
1947    1941.0   264.510      8.4806   7.7691     0.0   13.3137
1957    1951.0   264.910      8.4805   7.7690     0.0   13.3021
1967    1961.0   265.310      8.4801   7.7687     0.0   13.2985
1977    1971.0   265.710      8.4806   7.7691     0.0   13.2906
1987    1981.0   266.110      8.4803   7.7689     0.0   13.2813
1997    1991.0   266.510      8.4804   7.7689     0.0   13.2677
2007    2001.0   266.910      8.4804   7.7690     0.0   13.2688
2017    2011.0   267.310      8.4800   7.7686     0.0   13.2665
2027    2021.0   267.710      8.4802   7.7688     0.0   13.2490
2037    2031.0   268.110      8.4805   7.7690     0.0   13.2480
2047    2041.0   268.510      8.4803   7.7688     0.0   13.2440
2057    2051.0   268.910      8.4804   7.7690     0.0   13.2477
2067    2061.0   269.310      8.4802   7.7688     0.0   13.2273
2077    2071.0   269.710      8.4804   7.7689     0.0   13.2230
2087    2081.0   270.110      8.4802   7.7687     0.0   13.2070
2097    2091.0   270.510      8.4806   7.7692     0.0   13.2176
2107    2101.0   270.910      8.4802   7.7688     0.0   13.2038
2117    2111.0   271.310      8.4803   7.7688     0.0   13.1984
2127    2121.0   271.710      8.4806   7.7692     0.0   13.1953
2137    2131.0   272.110      8.4806   7.7691     0.0   13.1996
2147    2141.0   272.510      8.4802   7.7687     0.0   13.1927
2157    2151.0   272.910      8.4806   7.7692     0.0   13.1892
2167    2161.0   273.310      8.4803   7.7689     0.0   13.1829
2177    2171.0   273.710      8.4803   7.7689     0.0   13.1835
2187    2181.0   274.110      8.4804   7.7690     0.0   13.1677
2197    2191.0   274.510      8.4805   7.7691     0.0   13.1691
2207    2201.0   274.910      8.4800   7.7686     0.0   13.1586
2217    2211.0   275.310      8.4801   7.7687     0.0   13.1559
2227    2221.0   275.710      8.4801   7.7686     0.0   13.1578
2237    2231.0   276.110      8.4805   7.7691     0.0   13.1550
2247    2241.0   276.510      8.4805   7.7691     0.0   13.1426
2257    2251.0   276.910      8.4801   7.7687     0.0   13.1434
2267    2261.0   277.310      8.4806   7.7692     0.0   13.1354
2277    2271.0   277.710      8.4799   7.7685     0.0   13.1083
2287    2281.0   278.110      8.4802   7.7687     0.0   13.1131
2297    2291.0   278.510      8.4805   7.7690     0.0   13.1089
2307    2301.0   278.910      8.4805   7.7690     0.0   13.1019
2317    2311.0   279.310      8.4802   7.7688     0.0   13.0937
2327    2321.0   279.710      8.4801   7.7687     0.0   13.0945
2337    2331.0   280.110      8.4806   7.7692     0.0   13.0925
2347    2341.0   280.510      8.4809   7.7694     0.0   13.0964
2357    2351.0   280.910      8.4806   7.7691     0.0   13.0750
2367    2361.0   281.310      8.4802   7.7687     0.0   13.0675
2377    2371.0   281.710      8.4803   7.7688     0.0   13.0736
2387    2381.0   282.110      8.4805   7.7690     0.0   13.0627
2397    2391.0   282.510      8.4806   7.7692     0.0   13.0534
2407    2401.0   282.910      8.4805   7.7690     0.0   13.0530
2417    2411.0   283.310      8.4803   7.7688     0.0   13.0544
2427    2421.0   283.710      8.4801   7.7687     0.0   13.0488
2437    2431.0   284.110      8.4801   7.7687     0.0   13.0384
2447    2441.0   284.510      8.4806   7.7691     0.0   13.0247
2457    2451.0   284.910      8.4809   7.7695     0.0   13.0295
2467    2461.0   285.310      8.4808   7.7693     0.0   13.0281
2477    2471.0   285.710      8.4799   7.7685     0.0   13.0266
2487    2481.0   286.110      8.4803   7.7689     0.0   13.0247
2497    2491.0   286.510      8.4806   7.7692     0.0   13.0246
2507    2501.0   286.910      8.4803   7.7689     0.0   13.0059
2517    2511.0   287.310      8.4800   7.7686     0.0   13.0011
2527    2521.0   287.710      8.4807   7.7693     0.0   12.9925
2537    2531.0   288.110      8.4804   7.7690     0.0   12.9964
2547    2541.0   288.510      8.4799   7.7684     0.0   12.9818
2557    2551.0   288.910      8.4801   7.7687     0.0   12.9884
2567    2561.0   289.310      8.4805   7.7691     0.0   12.9805
2577    2571.0   289.710      8.4802   7.7687     0.0   12.9819
2587    2581.0   290.110      8.4806   7.7691     0.0   12.9687
2597    2591.0   290.510      8.4804   7.7690     0.0   12.9684
2607    2601.0   290.910      8.4802   7.7688     0.0   12.9627
2617    2611.0   291.310      8.4803   7.7688     0.0   12.9690
2627    2621.0   291.710      8.4807   7.7692     0.0   12.9634
2637    2631.0   292.110      8.4804   7.7689     0.0   12.9591
2647    2641.0   292.510      8.4804   7.7689     0.0   12.9630
2657    2651.0   292.910      8.4801   7.7686     0.0   12.9604
2667    2661.0   293.310      8.4805   7.7691     0.0   12.9511
2677    2671.0   293.710      8.4801   7.7686     0.0   12.9497
2694    2681.0   294.220      8.4822   7.7707     0.0   12.9656
2704    2691.0   294.620      8.4961   7.7847     0.0   13.2707
2714    2701.0   295.020      8.5094   7.7980     0.0   13.5214
2724    2711.0   295.420      8.5227   7.8113     0.0   13.7729
2734    2721.0   295.820      8.5359   7.8244     0.0   14.0082
2744    2731.0   296.220      8.5493   7.8379     0.0   14.2426
2754    2741.0   296.620      8.5627   7.8513     0.0   14.4764
2764    2751.0   297.020      8.5761   7.8647     0.0   14.6914
2774    2761.0   297.420      8.5894   7.8780     0.0   14.9100
2784    2771.0   297.820      8.6027   7.8913     0.0   15.1043
2794    2781.0   298.220      8.6161   7.9047     0.0   15.3075
2804    2791.0   298.620      8.6289   7.9175     0.0   15.5148
2814    2801.0   299.020      8.6426   7.9311     0.0   15.7085
2824    2811.0   299.420      8.6557   7.9443     0.0   15.8812
2834    2821.0   299.820      8.6687   7.9572     0.0   16.0706
2844    2831.0   300.220      8.6825   7.9711     0.0   16.2593
2854    2841.0   300.620      8.6960   7.9845     0.0   16.4390
2864    2851.0   301.020      8.7091   7.9977     0.0   16.6202
2874    2861.0   301.420      8.7222   8.0108     0.0   16.7958
2884    2871.0   301.820      8.7357   8.0243     0.0   16.9710
2894    2881.0   302.220      8.7494   8.0379     0.0   17.1565
2904    2891.0   302.620      8.7623   8.0508     0.0   17.3167
2914    2901.0   303.020      8.7761   8.0646     0.0   17.4943
2924    2911.0   303.420      8.7896   8.0781     0.0   17.6644
2934    2921.0   303.820      8.8026   8.0912     0.0   17.8432
2944    2931.0   304.220      8.8159   8.1045     0.0   18.0035
2954    2941.0   304.620      8.8292   8.1178     0.0   18.1668
2964    2951.0   305.020      8.8427   8.1313     0.0   18.3225
2974    2961.0   305.420      8.8555   8.1441     0.0   18.4928
2984    2971.0   305.820      8.8696   8.1582     0.0   18.6837
2994    2981.0   306.220      8.8820   8.1706     0.0   18.8330
3004    2991.0   306.620      8.8960   8.1846     0.0   19.0063
3014    3001.0   307.020      8.9093   8.1979     0.0   19.1841
3024    3011.0   307.420      8.9226   8.2112     0.0   19.3283
3034    3021.0   307.820      8.9362   8.2247     0.0   19.5039
3044    3031.0   308.220      8.9494   8.2379     0.0   19.6528
3054    3041.0   308.620      8.9631   8.2516     0.0   19.8288
3064    3051.0   309.020      8.9755   8.2641     0.0   19.9757
3074    3061.0   309.420      8.9894   8.2779     0.0   20.1504
3084    3071.0   309.820      9.0020   8.2905     0.0   20.3074
3094    3081.0   310.220      9.0160   8.3046     0.0   20.4803
3104    3091.0   310.620      9.0292   8.3178     0.0   20.6244
3114    3101.0   311.020      9.0428   8.3313     0.0   20.7894
