           Num  Time(s)  PosAbs(mm)  Pos(mm)  Pos(%)  Load(kN)
0          1.0    0.005      2.3157   0.0000     0.0    0.0851
10        11.0    2.005      2.3818   0.0660     0.0    0.1146
20        21.0    4.005      2.4483   0.1326     0.0    0.1451
30        31.0    6.005      2.5151   0.1994     0.0    0.1730
40        41.0    8.005      2.5817   0.2660     0.0    0.2124
50        51.0   10.005      2.6481   0.3324     0.0    0.2485
60        61.0   12.005      2.7151   0.3993     0.0    0.2875
70        71.0   14.005      2.7817   0.4659     0.0    0.3347
80        81.0   16.005      2.8483   0.5325     0.0    0.3790
90        91.0   18.005      2.9149   0.5992     0.0    0.4247
100      101.0   20.005      2.9815   0.6658     0.0    0.4775
110      111.0   22.005      3.0482   0.7325     0.0    0.5357
120      121.0   24.005      3.1151   0.7994     0.0    0.5926
130      131.0   26.005      3.1818   0.8660     0.0    0.6551
140      141.0   28.005      3.2484   0.9327     0.0    0.7219
150      151.0   30.005      3.3150   0.9993     0.0    0.7930
160      161.0   32.005      3.3818   1.0661     0.0    0.8668
170      171.0   34.005      3.4483   1.1326     0.0    0.9443
180      181.0   36.005      3.5150   1.1993     0.0    1.0305
190      191.0   38.005      3.5817   1.2659     0.0    1.1176
200      201.0   40.005      3.6482   1.3325     0.0    1.2095
210      211.0   42.005      3.7150   1.3993     0.0    1.3104
220      221.0   44.005      3.7816   1.4658     0.0    1.4152
230      231.0   46.005      3.8481   1.5324     0.0    1.5242
240      241.0   48.005      3.9148   1.5991     0.0    1.6430
250      251.0   50.005      3.9813   1.6656     0.0    1.7679
260      261.0   52.005      4.0483   1.7326     0.0    1.8988
270      271.0   54.005      4.1149   1.7992     0.0    2.0377
280      281.0   56.005      4.1814   1.8657     0.0    2.1835
290      291.0   58.005      4.2482   1.9325     0.0    2.3368
300      301.0   60.005      4.3148   1.9991     0.0    2.5025
310      311.0   62.005      4.3813   2.0656     0.0    2.6702
320      321.0   64.005      4.4483   2.1326     0.0    2.7990
330      331.0   66.005      4.5149   2.1992     0.0    2.8009
340      341.0   68.005      4.5815   2.2657     0.0    2.8491
350      351.0   70.005      4.6486   2.3329     0.0    2.8634
360      361.0   72.005      4.7149   2.3992     0.0    2.8812
370      371.0   74.005      4.7815   2.4658     0.0    2.8892
380      381.0   76.005      4.8483   2.5326     0.0    2.9055
390      391.0   78.005      4.9151   2.5994     0.0    2.9220
400      401.0   80.005      4.9817   2.6660     0.0    2.9328
410      411.0   82.005      5.0481   2.7324     0.0    2.9473
420      421.0   84.005      5.1146   2.7989     0.0    2.9713
430      431.0   86.005      5.1816   2.8658     0.0    2.9874
440      441.0   88.005      5.2483   2.9326     0.0    3.0279
450      451.0   90.005      5.3150   2.9993     0.0    3.0656
460      461.0   92.005      5.3817   3.0660     0.0    3.1906
470      471.0   94.005      5.4482   3.1325     0.0    3.2426
480      481.0   96.005      5.5150   3.1992     0.0    3.3231
490      491.0   98.005      5.5819   3.2662     0.0    3.3739
500      501.0  100.005      5.6482   3.3325     0.0    3.3719
510      511.0  102.005      5.7149   3.3992     0.0    3.3715
520      521.0  104.005      5.7816   3.4659     0.0    3.3827
530      531.0  106.005      5.8484   3.5327     0.0    3.3895
540      541.0  108.005      5.9149   3.5992     0.0    3.3908
550      551.0  110.005      5.9815   3.6658     0.0    3.3753
560      561.0  112.005      6.0480   3.7323     0.0    3.3913
570      571.0  114.005      6.1147   3.7989     0.0    3.4051
580      581.0  116.005      6.1815   3.8657     0.0    3.4181
590      591.0  118.005      6.2481   3.9324     0.0    3.4311
600      601.0  120.005      6.3148   3.9991     0.0    3.4320
610      611.0  122.005      6.3814   4.0657     0.0    3.4333
620      621.0  124.005      6.4479   4.1322     0.0    3.4319
630      631.0  126.005      6.5148   4.1991     0.0    3.4429
640      641.0  128.005      6.5812   4.2655     0.0    3.4508
650      651.0  130.005      6.6479   4.3322     0.0    3.4547
660      661.0  132.005      6.7146   4.3988     0.0    3.4538
670      671.0  134.005      6.7814   4.4657     0.0    3.4615
680      681.0  136.005      6.8484   4.5327     0.0    3.4806
690      691.0  138.005      6.9149   4.5992     0.0    3.6143
700      701.0  140.005      6.9814   4.6657     0.0    3.7367
710      711.0  142.005      7.0486   4.7329     0.0    3.8189
720      721.0  144.005      7.1148   4.7991     0.0    3.9296
730      731.0  146.005      7.1820   4.8663     0.0    4.0230
740      741.0  148.005      7.2480   4.9323     0.0    4.1483
750      751.0  150.005      7.3146   4.9988     0.0    4.2325
760      761.0  152.005      7.3819   5.0662     0.0    4.2797
770      771.0  154.005      7.4478   5.1321     0.0    4.5126
780      781.0  156.005      7.5146   5.1989     0.0    4.8143
790      791.0  158.005      7.5814   5.2656     0.0    5.0807
800      801.0  160.005      7.6480   5.3323     0.0    5.2919
810      811.0  162.005      7.7148   5.3991     0.0    5.4836
820      821.0  164.005      7.7812   5.4655     0.0    5.6558
830      831.0  166.005      7.8482   5.5325     0.0    5.8307
840      841.0  168.005      7.9146   5.5988     0.0    6.0436
850      851.0  170.005      7.9814   5.6657     0.0    6.2431
860      861.0  172.005      8.0484   5.7327     0.0    6.4023
870      871.0  174.005      8.1144   5.7987     0.0    6.5927
880      881.0  176.005      8.1812   5.8654     0.0    6.7901
890      891.0  178.005      8.2482   5.9325     0.0    7.0064
900      901.0  180.005      8.3150   5.9993     0.0    7.2382
910      911.0  182.005      8.3819   6.0662     0.0    7.4966
920      921.0  184.005      8.4475   6.1318     0.0    7.7719
930      931.0  186.005      8.5143   6.1986     0.0    8.2269
940      941.0  188.005      8.5810   6.2653     0.0    8.6351
950      951.0  190.005      8.6480   6.3323     0.0    9.0620
960      961.0  192.005      8.7146   6.3989     0.0    9.4736
970      971.0  194.005      8.7808   6.4651     0.0    9.9016
980      981.0  196.005      8.8479   6.5322     0.0   10.3907
990      991.0  198.005      8.9150   6.5993     0.0   10.8816
1000    1001.0  200.005      8.9815   6.6658     0.0   11.4066
1010    1011.0  202.005      9.0477   6.7320     0.0   11.9533
1020    1021.0  204.005      9.1142   6.7985     0.0   12.5274
1030    1031.0  206.005      9.1814   6.8657     0.0   13.1309
1040    1041.0  208.005      9.2480   6.9322     0.0   13.7738
1050    1051.0  210.005      9.3144   6.9987     0.0   14.4331
1066    1061.0  211.835      9.3616   7.0459     0.0   14.7488
1076    1071.0  212.235      9.3604   7.0447     0.0   14.6674
1086    1081.0  212.635      9.3599   7.0442     0.0   14.5914
1096    1091.0  213.035      9.3603   7.0446     0.0   14.5422
1106    1101.0  213.435      9.3601   7.0444     0.0   14.5057
1116    1111.0  213.835      9.3606   7.0449     0.0   14.4657
1126    1121.0  214.235      9.3605   7.0448     0.0   14.4246
1136    1131.0  214.635      9.3598   7.0441     0.0   14.3866
1146    1141.0  215.035      9.3600   7.0443     0.0   14.3612
1156    1151.0  215.435      9.3598   7.0440     0.0   14.3298
1166    1161.0  215.835      9.3602   7.0445     0.0   14.2950
1176    1171.0  216.235      9.3603   7.0446     0.0   14.2731
1186    1181.0  216.635      9.3602   7.0445     0.0   14.2482
1196    1191.0  217.035      9.3601   7.0444     0.0   14.2294
1206    1201.0  217.435      9.3598   7.0441     0.0   14.1974
1216    1211.0  217.835      9.3602   7.0445     0.0   14.1720
1226    1221.0  218.235      9.3609   7.0452     0.0   14.1620
1236    1231.0  218.635      9.3605   7.0448     0.0   14.1393
1246    1241.0  219.035      9.3604   7.0446     0.0   14.1154
1256    1251.0  219.435      9.3600   7.0443     0.0   14.0887
1266    1261.0  219.835      9.3603   7.0446     0.0   14.0709
1276    1271.0  220.235      9.3604   7.0447     0.0   14.0483
1286    1281.0  220.635      9.3597   7.0440     0.0   14.0481
1296    1291.0  221.035      9.3606   7.0449     0.0   14.0219
1306    1301.0  221.435      9.3605   7.0448     0.0   14.0046
1317    1311.0  221.835      9.3602   7.0445     0.0   14.0035
1327    1321.0  222.235      9.3605   7.0448     0.0   13.9853
1337    1331.0  222.635      9.3608   7.0451     0.0   13.9651
1347    1341.0  223.035      9.3606   7.0449     0.0   13.9640
1357    1351.0  223.435      9.3610   7.0453     0.0   13.9284
1367    1361.0  223.835      9.3606   7.0449     0.0   13.9285
1377    1371.0  224.235      9.3609   7.0452     0.0   13.9163
1387    1381.0  224.635      9.3606   7.0449     0.0   13.8947
1397    1391.0  225.035      9.3606   7.0449     0.0   13.8768
1407    1401.0  225.435      9.3605   7.0448     0.0   13.8731
1417    1411.0  225.835      9.3603   7.0445     0.0   13.8551
1427    1421.0  226.235      9.3603   7.0446     0.0   13.8463
1437    1431.0  226.635      9.3606   7.0448     0.0   13.8312
1447    1441.0  227.035      9.3601   7.0444     0.0   13.8238
1457    1451.0  227.435      9.3602   7.0445     0.0   13.8081
1467    1461.0  227.835      9.3605   7.0448     0.0   13.7984
1477    1471.0  228.235      9.3606   7.0449     0.0   13.7915
1487    1481.0  228.635      9.3605   7.0448     0.0   13.7805
1497    1491.0  229.035      9.3607   7.0450     0.0   13.7626
1507    1501.0  229.435      9.3610   7.0453     0.0   13.7675
1517    1511.0  229.835      9.3601   7.0444     0.0   13.7508
1527    1521.0  230.235      9.3604   7.0447     0.0   13.7414
1537    1531.0  230.635      9.3603   7.0446     0.0   13.7237
1547    1541.0  231.035      9.3603   7.0446     0.0   13.7029
1557    1551.0  231.435      9.3606   7.0449     0.0   13.7049
1567    1561.0  231.835      9.3608   7.0450     0.0   13.7017
1577    1571.0  232.235      9.3608   7.0451     0.0   13.6886
1587    1581.0  232.635      9.3606   7.0449     0.0   13.6781
1597    1591.0  233.035      9.3603   7.0445     0.0   13.6705
1607    1601.0  233.435      9.3606   7.0449     0.0   13.6674
1617    1611.0  233.835      9.3605   7.0448     0.0   13.6546
1627    1621.0  234.235      9.3603   7.0446     0.0   13.6440
1637    1631.0  234.635      9.3604   7.0447     0.0   13.6420
1647    1641.0  235.035      9.3609   7.0452     0.0   13.6314
1657    1651.0  235.435      9.3601   7.0444     0.0   13.6195
1667    1661.0  235.835      9.3604   7.0447     0.0   13.6288
1677    1671.0  236.235      9.3605   7.0448     0.0   13.6228
1687    1681.0  236.635      9.3607   7.0449     0.0   13.6068
1697    1691.0  237.035      9.3603   7.0446     0.0   13.6006
1707    1701.0  237.435      9.3603   7.0446     0.0   13.5830
1717    1711.0  237.835      9.3602   7.0445     0.0   13.5929
1727    1721.0  238.235      9.3605   7.0448     0.0   13.5675
1737    1731.0  238.635      9.3602   7.0445     0.0   13.5677
1747    1741.0  239.035      9.3606   7.0449     0.0   13.5536
1757    1751.0  239.435      9.3606   7.0448     0.0   13.5383
1767    1761.0  239.835      9.3604   7.0446     0.0   13.5425
1777    1771.0  240.235      9.3607   7.0450     0.0   13.5332
1787    1781.0  240.635      9.3605   7.0447     0.0   13.5228
1797    1791.0  241.035      9.3609   7.0452     0.0   13.5230
1807    1801.0  241.435      9.3610   7.0453     0.0   13.5028
1817    1811.0  241.835      9.3606   7.0449     0.0   13.4928
1827    1821.0  242.235      9.3604   7.0447     0.0   13.4940
1837    1831.0  242.635      9.3606   7.0449     0.0   13.4949
1847    1841.0  243.035      9.3605   7.0448     0.0   13.4872
1857    1851.0  243.435      9.3600   7.0443     0.0   13.4737
1867    1861.0  243.835      9.3603   7.0446     0.0   13.4694
1877    1871.0  244.235      9.3608   7.0451     0.0   13.4558
1887    1881.0  244.635      9.3605   7.0448     0.0   13.4404
1897    1891.0  245.035      9.3604   7.0446     0.0   13.4391
1907    1901.0  245.435      9.3603   7.0446     0.0   13.4442
1917    1911.0  245.835      9.3604   7.0447     0.0   13.4422
1927    1921.0  246.235      9.3608   7.0451     0.0   13.4397
1937    1931.0  246.635      9.3607   7.0450     0.0   13.4300
1947    1941.0  247.035      9.3604   7.0447     0.0   13.4287
1957    1951.0  247.435      9.3610   7.0453     0.0   13.4256
1967    1961.0  247.835      9.3609   7.0452     0.0   13.4673
1977    1971.0  248.235      9.3604   7.0446     0.0   13.4368
1987    1981.0  248.635      9.3603   7.0446     0.0   13.4193
1997    1991.0  249.035      9.3604   7.0447     0.0   13.4360
2007    2001.0  249.435      9.3607   7.0450     0.0   13.4195
2017    2011.0  249.835      9.3605   7.0448     0.0   13.3891
2027    2021.0  250.235      9.3605   7.0448     0.0   13.3875
2037    2031.0  250.635      9.3604   7.0446     0.0   13.4291
2047    2041.0  251.035      9.3603   7.0445     0.0   13.4113
2057    2051.0  251.435      9.3604   7.0447     0.0   13.3923
2067    2061.0  251.835      9.3603   7.0446     0.0   13.3890
2077    2071.0  252.235      9.3603   7.0446     0.0   13.4006
2087    2081.0  252.635      9.3606   7.0449     0.0   13.3710
2097    2091.0  253.035      9.3603   7.0446     0.0   13.3656
2107    2101.0  253.435      9.3601   7.0444     0.0   13.3558
2117    2111.0  253.835      9.3603   7.0446     0.0   13.3377
2127    2121.0  254.235      9.3605   7.0448     0.0   13.3001
2137    2131.0  254.635      9.3606   7.0448     0.0   13.3017
2147    2141.0  255.035      9.3604   7.0447     0.0   13.3124
2157    2151.0  255.435      9.3600   7.0443     0.0   13.2968
2167    2161.0  255.835      9.3607   7.0450     0.0   13.2826
2177    2171.0  256.235      9.3605   7.0448     0.0   13.2880
2187    2181.0  256.635      9.3605   7.0448     0.0   13.2951
2197    2191.0  257.035      9.3603   7.0446     0.0   13.2722
2207    2201.0  257.435      9.3597   7.0440     0.0   13.2772
2217    2211.0  257.835      9.3603   7.0446     0.0   13.2742
2227    2221.0  258.235      9.3601   7.0444     0.0   13.2527
2237    2231.0  258.635      9.3598   7.0441     0.0   13.2590
2247    2241.0  259.035      9.3605   7.0448     0.0   13.2649
2257    2251.0  259.435      9.3603   7.0446     0.0   13.2562
2267    2261.0  259.835      9.3608   7.0451     0.0   13.2483
2277    2271.0  260.235      9.3610   7.0453     0.0   13.2457
2287    2281.0  260.635      9.3607   7.0450     0.0   13.2469
2297    2291.0  261.035      9.3604   7.0447     0.0   13.2422
2307    2301.0  261.435      9.3601   7.0444     0.0   13.2347
2317    2311.0  261.835      9.3607   7.0449     0.0   13.2352
2327    2321.0  262.235      9.3604   7.0447     0.0   13.2289
2337    2331.0  262.635      9.3607   7.0450     0.0   13.2320
2354    2341.0  263.100      9.3715   7.0557     0.0   13.4485
2364    2351.0  263.500      9.3857   7.0699     0.0   13.7145
2374    2361.0  263.900      9.3985   7.0828     0.0   13.9561
2384    2371.0  264.300      9.4115   7.0958     0.0   14.1874
2394    2381.0  264.700      9.4254   7.1096     0.0   14.4361
2404    2391.0  265.100      9.4384   7.1227     0.0   14.6531
2414    2401.0  265.500      9.4518   7.1361     0.0   14.8705
2424    2411.0  265.900      9.4656   7.1498     0.0   15.0820
2434    2421.0  266.300      9.4789   7.1632     0.0   15.2904
2444    2431.0  266.700      9.4918   7.1761     0.0   15.5070
2454    2441.0  267.100      9.5057   7.1900     0.0   15.6882
2464    2451.0  267.500      9.5186   7.2029     0.0   15.8827
2474    2461.0  267.900      9.5321   7.2164     0.0   16.0803
2484    2471.0  268.300      9.5455   7.2298     0.0   16.2692
2494    2481.0  268.700      9.5585   7.2428     0.0   16.4340
2504    2491.0  269.100      9.5719   7.2562     0.0   16.6282
2514    2501.0  269.500      9.5851   7.2694     0.0   16.7975
2524    2511.0  269.900      9.5987   7.2830     0.0   16.9871
2534    2521.0  270.300      9.6119   7.2962     0.0   17.1587
2544    2531.0  270.700      9.6255   7.3098     0.0   17.3582
2554    2541.0  271.100      9.6386   7.3229     0.0   17.5310
2564    2551.0  271.500      9.6518   7.3361     0.0   17.7099
2574    2561.0  271.900      9.6654   7.3496     0.0   17.8940
2584    2571.0  272.300      9.6787   7.3630     0.0   18.0502
2594    2581.0  272.700      9.6920   7.3763     0.0   18.2300
2604    2591.0  273.100      9.7052   7.3895     0.0   18.3820
2614    2601.0  273.500      9.7182   7.4025     0.0   18.5451
2624    2611.0  273.900      9.7317   7.4160     0.0   18.7132
2634    2621.0  274.300      9.7451   7.4294     0.0   18.8743
2644    2631.0  274.700      9.7579   7.4422     0.0   19.0198
2654    2641.0  275.100      9.7714   7.4557     0.0   19.1917
2664    2651.0  275.500      9.7850   7.4693     0.0   19.3540
2674    2661.0  275.900      9.7984   7.4826     0.0   19.4850
2684    2671.0  276.300      9.8118   7.4961     0.0   19.5453
2694    2681.0  276.700      9.8248   7.5091     0.0   19.6217
2704    2691.0  277.100      9.8385   7.5228     0.0   19.7226
2714    2701.0  277.500      9.8520   7.5363     0.0   19.8507
2724    2711.0  277.900      9.8650   7.5492     0.0   19.9900
2734    2721.0  278.300      9.8783   7.5626     0.0   20.0884
2744    2731.0  278.700      9.8924   7.5767     0.0   20.2051
2754    2741.0  279.100      9.9057   7.5900     0.0   20.3515
2764    2751.0  279.500      9.9189   7.6032     0.0   20.4582
2774    2761.0  279.900      9.9316   7.6159     0.0   20.6295
2784    2771.0  280.300      9.9445   7.6288     0.0   20.7476
2794    2781.0  280.700      9.9584   7.6427     0.0   20.9100
2804    2791.0  281.100      9.9718   7.6561     0.0   21.0402
2814    2801.0  281.500      9.9847   7.6690     0.0   21.1838
2824    2811.0  281.900      9.9982   7.6825     0.0   21.3182
2834    2821.0  282.300     10.0118   7.6961     0.0   21.4682
2844    2831.0  282.700     10.0250   7.7093     0.0   21.6183
2854    2841.0  283.100     10.0382   7.7225     0.0   21.7460
2864    2851.0  283.500     10.0518   7.7361     0.0   21.8924
2874    2861.0  283.900     10.0652   7.7495     0.0   22.0305
2884    2871.0  284.300     10.0783   7.7626     0.0   22.1654
2894    2881.0  284.700     10.0915   7.7758     0.0   22.3099
2904    2891.0  285.100     10.1050   7.7893     0.0   22.4454
2914    2901.0  285.500     10.1182   7.8025     0.0   22.5931
2924    2911.0  285.900     10.1317   7.8160     0.0   22.7243
2934    2921.0  286.300     10.1453   7.8296     0.0   22.8816
2944    2931.0  286.700     10.1584   7.8427     0.0   23.0158
2954    2941.0  287.100     10.1713   7.8556     0.0   23.1213
2964    2951.0  287.500     10.1849   7.8692     0.0   23.2897
2974    2961.0  287.900     10.1986   7.8829     0.0   23.4029
2984    2971.0  288.300     10.2113   7.8956     0.0   23.5359
2994    2981.0  288.700     10.2249   7.9092     0.0   23.6773
3004    2991.0  289.100     10.2385   7.9227     0.0   23.8161
3014    3001.0  289.500     10.2516   7.9359     0.0   23.9519
3024    3011.0  289.900     10.2654   7.9497     0.0   24.0982
3034    3021.0  290.300     10.2777   7.9620     0.0   24.2365
3044    3031.0  290.700     10.2913   7.9756     0.0   24.3855
3054    3041.0  291.100     10.3043   7.9886     0.0   24.5224
3064    3051.0  291.500     10.3188   8.0031     0.0   24.6860
3074    3061.0  291.900     10.3316   8.0159     0.0   24.8287
3084    3071.0  292.300     10.3447   8.0289     0.0   24.9498
3100    3081.0  292.715     10.3368   8.0211     0.0   24.6031
3110    3091.0  293.115     10.3368   8.0211     0.0   24.5416
3120    3101.0  293.515     10.3362   8.0205     0.0   24.4749
3130    3111.0  293.915     10.3363   8.0206     0.0   24.4063
3140    3121.0  294.315     10.3370   8.0213     0.0   24.3460
3150    3131.0  294.715     10.3367   8.0210     0.0   24.2883
3160    3141.0  295.115     10.3372   8.0215     0.0   24.2536
3170    3151.0  295.515     10.3368   8.0211     0.0   24.2075
